Frequency (MHz),Level (dBm)
54.0,-97.1
54.025,-96.4
54.05,-97.1
54.075,-96.7
54.1,-98.1
54.125,-98.8
54.15,-99.2
54.175,-97.9
54.2,-98.1
54.225,-97.8
54.25,-98.1
54.275,-97.3
54.3,-98.1
54.325,-98.3
54.35,-94.9
54.375,-98.4
54.4,-97.9
54.425,-97.4
54.45,-98.8
54.475,-97.7
54.5,-98.5
54.525,-98.7
54.55,-98.0
54.575,-98.4
54.6,-99.8
54.625,-99.0
54.65,-99.4
54.675,-98.8
54.7,-96.6
54.725,-98.0
54.75,-98.2
54.775,-97.6
54.8,-99.2
54.825,-98.8
54.85,-98.8
54.875,-98.9
54.9,-97.5
54.925,-98.9
54.95,-98.9
54.975,-97.5
55.0,-99.7
55.025,-99.8
55.05,-98.5
55.075,-98.3
55.1,-98.9
55.125,-99.8
55.15,-99.1
55.175,-97.8
55.2,-99.6
55.225,-98.8
55.25,-99.2
55.275,-99.1
55.3,-99.6
55.325,-98.6
55.35,-99.0
55.375,-96.3
55.4,-98.8
55.425,-98.7
55.45,-98.4
55.475,-99.2
55.5,-98.9
55.525,-99.1
55.55,-98.9
55.575,-97.6
55.6,-98.9
55.625,-99.6
55.65,-100.5
55.675,-97.8
55.7,-98.6
55.725,-98.6
55.75,-99.7
55.775,-99.3
55.8,-98.1
55.825,-99.4
55.85,-99.4
55.875,-98.6
55.9,-98.8
55.925,-99.7
55.95,-99.5
55.975,-99.9
56.0,-98.7
56.025,-98.6
56.05,-98.7
56.075,-98.5
56.1,-99.4
56.125,-96.5
56.15,-100.1
56.175,-99.7
56.2,-98.9
56.225,-98.5
56.25,-100.4
56.275,-99.8
56.3,-99.8
56.325,-98.9
56.35,-100.5
56.375,-99.7
56.4,-99.3
56.425,-99.6
56.45,-98.5
56.475,-99.5
56.5,-99.3
56.525,-99.0
56.55,-98.4
56.575,-100.3
56.6,-98.9
56.625,-99.0
56.65,-100.6
56.675,-98.9
56.7,-98.0
56.725,-99.6
56.75,-98.8
56.775,-99.6
56.8,-99.1
56.825,-98.9
56.85,-100.4
56.875,-98.5
56.9,-99.2
56.925,-99.1
56.95,-99.4
56.975,-99.4
57.0,-98.8
57.025,-101.0
57.05,-100.2
57.075,-99.1
57.1,-99.5
57.125,-98.4
57.15,-100.2
57.175,-98.4
57.2,-99.8
57.225,-99.1
57.25,-99.6
57.275,-99.1
57.3,-99.8
57.325,-99.3
57.35,-98.0
57.375,-99.2
57.4,-99.6
57.425,-98.2
57.45,-99.3
57.475,-100.1
57.5,-99.2
57.525,-100.4
57.55,-99.4
57.575,-98.1
57.6,-99.6
57.625,-98.3
57.65,-99.5
57.675,-100.8
57.7,-98.8
57.725,-98.8
57.75,-99.4
57.775,-100.5
57.8,-98.7
57.825,-98.9
57.85,-99.5
57.875,-100.5
57.9,-99.7
57.925,-98.8
57.95,-98.9
57.975,-99.3
58.0,-98.8
58.025,-100.5
58.05,-99.3
58.075,-99.2
58.1,-99.4
58.125,-97.1
58.15,-98.2
58.175,-99.4
58.2,-98.4
58.225,-97.0
58.25,-97.4
58.275,-98.5
58.3,-98.4
58.325,-99.3
58.35,-98.4
58.375,-99.8
58.4,-98.2
58.425,-98.3
58.45,-97.5
58.475,-97.6
58.5,-97.9
58.525,-100.1
58.55,-98.3
58.575,-100.2
58.6,-99.4
58.625,-99.7
58.65,-98.2
58.675,-99.7
58.7,-98.0
58.725,-99.2
58.75,-99.9
58.775,-98.3
58.8,-99.8
58.825,-98.9
58.85,-98.4
58.875,-97.9
58.9,-99.0
58.925,-99.8
58.95,-99.9
58.975,-99.4
59.0,-97.8
59.025,-100.0
59.05,-99.2
59.075,-99.9
59.1,-100.2
59.125,-98.9
59.15,-98.6
59.175,-99.1
59.2,-99.8
59.225,-97.8
59.25,-100.1
59.275,-98.2
59.3,-98.4
59.325,-99.7
59.35,-98.6
59.375,-99.3
59.4,-98.8
59.425,-99.0
59.45,-98.9
59.475,-98.6
59.5,-96.6
59.525,-97.6
59.55,-99.5
59.575,-97.4
59.6,-97.1
59.625,-98.7
59.65,-97.1
59.675,-98.2
59.7,-97.2
59.725,-96.8
59.75,-96.6
59.775,-96.0
59.8,-96.0
59.825,-95.0
59.85,-96.5
59.875,-95.9
59.9,-95.7
59.925,-97.2
59.95,-95.4
59.975,-96.9
60.0,-95.2
60.025,-95.1
60.05,-94.3
60.075,-94.1
60.1,-93.5
60.125,-95.5
60.15,-95.6
60.175,-96.6
60.2,-94.3
60.225,-95.4
60.25,-95.3
60.275,-95.3
60.3,-95.5
60.325,-92.9
60.35,-96.0
60.375,-97.0
60.4,-97.2
60.425,-97.4
60.45,-96.5
60.475,-97.4
60.5,-93.7
60.525,-98.4
60.55,-96.5
60.575,-97.3
60.6,-96.2
60.625,-97.1
60.65,-96.2
60.675,-97.1
60.7,-95.1
60.725,-96.2
60.75,-95.6
60.775,-94.6
60.8,-95.5
60.825,-95.1
60.85,-93.3
60.875,-93.7
60.9,-92.3
60.925,-94.3
60.95,-94.3
60.975,-93.6
61.0,-92.6
61.025,-94.3
61.05,-93.3
61.075,-92.6
61.1,-93.1
61.125,-92.4
61.15,-91.6
61.175,-93.4
61.2,-93.4
61.225,-92.6
61.25,-90.6
61.275,-92.3
61.3,-92.5
61.325,-93.0
61.35,-91.7
61.375,-92.5
61.4,-92.6
61.425,-92.0
61.45,-90.9
61.475,-91.7
61.5,-91.5
61.525,-91.7
61.55,-92.8
61.575,-90.9
61.6,-92.6
61.625,-93.3
61.65,-92.3
61.675,-91.9
61.7,-92.8
61.725,-92.9
61.75,-93.8
61.775,-93.9
61.8,-94.4
61.825,-93.8
61.85,-93.5
61.875,-94.2
61.9,-92.1
61.925,-93.0
61.95,-91.9
61.975,-91.2
62.0,-91.9
62.025,-92.4
62.05,-92.1
62.075,-90.9
62.1,-89.6
62.125,-90.1
62.15,-90.6
62.175,-89.9
62.2,-90.4
62.225,-90.7
62.25,-89.8
62.275,-89.8
62.3,-89.7
62.325,-90.3
62.35,-90.1
62.375,-88.6
62.4,-89.5
62.425,-89.3
62.45,-89.0
62.475,-89.5
62.5,-89.1
62.525,-89.5
62.55,-89.3
62.575,-88.3
62.6,-88.4
62.625,-89.0
62.65,-88.8
62.675,-89.1
62.7,-88.6
62.725,-88.2
62.75,-88.5
62.775,-89.2
62.8,-90.0
62.825,-88.2
62.85,-89.1
62.875,-88.6
62.9,-90.1
62.925,-89.7
62.95,-90.7
62.975,-89.0
63.0,-90.5
63.025,-92.2
63.05,-89.6
63.075,-91.1
63.1,-91.6
63.125,-92.2
63.15,-92.2
63.175,-92.5
63.2,-91.9
63.225,-91.0
63.25,-91.3
63.275,-90.2
63.3,-90.1
63.325,-90.3
63.35,-90.7
63.375,-90.4
63.4,-91.2
63.425,-89.9
63.45,-90.0
63.475,-90.2
63.5,-89.4
63.525,-89.3
63.55,-89.6
63.575,-89.6
63.6,-88.6
63.625,-89.2
63.65,-89.8
63.675,-90.1
63.7,-89.3
63.725,-88.9
63.75,-88.5
63.775,-88.4
63.8,-89.2
63.825,-88.6
63.85,-90.6
63.875,-90.0
63.9,-89.0
63.925,-89.6
63.95,-89.6
63.975,-89.3
64.0,-89.4
64.0,-89.3
64.025,-89.2
64.05,-88.4
64.075,-89.5
64.1,-89.3
64.125,-89.7
64.15,-89.8
64.175,-89.4
64.2,-90.2
64.225,-90.2
64.25,-91.1
64.275,-90.3
64.3,-91.0
64.325,-89.7
64.35,-91.8
64.375,-91.6
64.4,-91.9
64.425,-90.7
64.45,-91.8
64.475,-91.9
64.5,-91.0
64.525,-93.3
64.55,-93.0
64.575,-93.7
64.6,-92.3
64.625,-93.6
64.65,-91.4
64.675,-90.9
64.7,-91.0
64.725,-92.0
64.75,-90.8
64.775,-90.7
64.8,-90.6
64.825,-90.4
64.85,-90.7
64.875,-89.3
64.9,-90.7
64.925,-89.7
64.95,-90.2
64.975,-90.2
65.0,-90.8
65.025,-89.8
65.05,-91.2
65.075,-89.3
65.1,-91.2
65.125,-91.4
65.15,-89.9
65.175,-90.4
65.2,-91.1
65.225,-91.1
65.25,-90.6
65.275,-91.4
65.3,-90.9
65.325,-90.6
65.35,-91.9
65.375,-91.3
65.4,-92.1
65.425,-91.1
65.45,-91.9
65.475,-91.7
65.5,-91.4
65.525,-92.1
65.55,-92.0
65.575,-93.4
65.6,-92.3
65.625,-93.4
65.65,-92.5
65.675,-93.0
65.7,-94.5
65.725,-92.0
65.75,-94.9
65.775,-93.7
65.8,-93.5
65.825,-93.9
65.85,-93.5
65.875,-93.6
65.9,-94.6
65.925,-94.2
65.95,-92.3
65.975,-91.1
66.0,-91.7
66.025,-91.9
66.05,-91.8
66.075,-90.6
66.1,-92.6
66.125,-91.1
66.15,-91.6
66.175,-91.2
66.2,-91.3
66.225,-91.7
66.25,-92.0
66.275,-92.7
66.3,-92.0
66.325,-89.7
66.35,-91.6
66.375,-90.4
66.4,-90.5
66.425,-91.5
66.45,-90.6
66.475,-91.3
66.5,-91.8
66.525,-91.3
66.55,-92.2
66.575,-91.6
66.6,-92.2
66.625,-91.1
66.65,-91.1
66.675,-92.3
66.7,-92.4
66.725,-92.2
66.75,-93.0
66.775,-93.6
66.8,-92.9
66.825,-93.0
66.85,-93.0
66.875,-92.2
66.9,-93.9
66.925,-93.1
66.95,-94.1
66.975,-93.1
67.0,-93.8
67.025,-94.2
67.05,-94.4
67.075,-95.7
67.1,-95.1
67.125,-97.3
67.15,-93.8
67.175,-94.7
67.2,-94.1
67.225,-95.7
67.25,-92.9
67.275,-94.0
67.3,-95.4
67.325,-93.8
67.35,-93.4
67.375,-94.1
67.4,-93.5
67.425,-93.0
67.45,-93.3
67.475,-94.1
67.5,-93.2
67.525,-92.6
67.55,-93.0
67.575,-93.4
67.6,-93.8
67.625,-93.6
67.65,-93.6
67.675,-92.9
67.7,-92.1
67.725,-93.1
67.75,-93.8
67.775,-93.2
67.8,-93.8
67.825,-92.7
67.85,-93.8
67.875,-93.2
67.9,-93.2
67.925,-93.5
67.95,-92.5
67.975,-94.7
68.0,-94.4
68.025,-93.5
68.05,-95.1
68.075,-94.2
68.1,-93.4
68.125,-93.5
68.15,-94.4
68.175,-93.9
68.2,-96.5
68.225,-95.0
68.25,-95.9
68.275,-96.2
68.3,-96.2
68.325,-95.1
68.35,-97.9
68.375,-95.4
68.4,-97.6
68.425,-96.4
68.45,-96.2
68.475,-96.0
68.5,-96.0
68.525,-96.2
68.55,-95.3
68.575,-95.9
68.6,-94.5
68.625,-95.5
68.65,-94.9
68.675,-93.6
68.7,-93.9
68.725,-93.4
68.75,-94.1
68.775,-94.3
68.8,-93.8
68.825,-94.2
68.85,-94.1
68.875,-93.8
68.9,-94.2
68.925,-93.8
68.95,-94.3
68.975,-93.4
69.0,-94.3
69.025,-94.4
69.05,-94.5
69.075,-93.5
69.1,-94.1
69.125,-92.7
69.15,-91.2
69.175,-93.7
69.2,-93.9
69.225,-94.7
69.25,-93.5
69.275,-93.5
69.3,-95.1
69.325,-94.1
69.35,-95.4
69.375,-94.0
69.4,-95.5
69.425,-95.0
69.45,-94.7
69.475,-95.0
69.5,-95.8
69.525,-96.3
69.55,-93.3
69.575,-95.7
69.6,-97.6
69.625,-95.8
69.65,-96.8
69.675,-96.2
69.7,-97.4
69.725,-95.5
69.75,-97.3
69.775,-94.3
69.8,-96.2
69.825,-96.2
69.85,-96.2
69.875,-95.0
69.9,-95.3
69.925,-95.8
69.95,-96.2
69.975,-96.0
70.0,-95.0
70.025,-95.6
70.05,-94.2
70.075,-94.4
70.1,-94.3
70.125,-94.0
70.15,-95.7
70.175,-94.6
70.2,-94.5
70.225,-95.6
70.25,-94.7
70.275,-93.8
70.3,-93.8
70.325,-93.4
70.35,-93.9
70.375,-93.9
70.4,-94.9
70.425,-94.6
70.45,-94.9
70.475,-92.8
70.5,-94.9
70.525,-95.2
70.55,-94.2
70.575,-94.5
70.6,-95.8
70.625,-95.0
70.65,-93.5
70.675,-96.0
70.7,-94.4
70.725,-96.2
70.75,-97.2
70.775,-95.9
70.8,-96.8
70.825,-96.7
70.85,-96.9
70.875,-96.2
70.9,-96.8
70.925,-96.5
70.95,-97.0
70.975,-97.5
71.0,-97.9
71.025,-95.4
71.05,-96.1
71.075,-95.0
71.1,-95.6
71.125,-97.3
71.15,-94.8
71.175,-96.8
71.2,-94.8
71.225,-95.1
71.25,-96.4
71.275,-95.4
71.3,-95.2
71.325,-96.1
71.35,-95.2
71.375,-95.7
71.4,-96.2
71.425,-94.1
71.45,-95.2
71.475,-94.9
71.5,-95.2
71.525,-94.5
71.55,-94.5
71.575,-94.6
71.6,-94.5
71.625,-95.8
71.65,-96.5
71.675,-94.1
71.7,-93.1
71.725,-94.9
71.75,-93.6
71.775,-94.6
71.8,-94.8
71.825,-95.7
71.85,-95.4
71.875,-94.7
71.9,-95.9
71.925,-96.2
71.95,-95.1
71.975,-93.6
72.0,-92.7
72.025,-94.2
72.05,-94.7
72.075,-95.3
72.1,-94.6
72.125,-96.8
72.15,-95.9
72.175,-96.7
72.2,-95.7
72.225,-95.7
72.25,-97.4
72.275,-97.8
72.3,-97.0
72.325,-97.3
72.35,-98.7
72.375,-97.2
72.4,-97.3
72.425,-95.2
72.45,-97.5
72.475,-97.5
72.5,-95.7
72.525,-97.5
72.55,-96.6
72.575,-94.3
72.6,-95.7
72.625,-96.7
72.65,-98.0
72.675,-96.4
72.7,-97.3
72.725,-96.3
72.75,-96.3
72.775,-96.9
72.8,-97.4
72.825,-96.6
72.85,-96.1
72.875,-95.5
72.9,-96.5
72.925,-95.8
72.95,-97.0
72.975,-95.6
73.0,-97.2
73.025,-96.5
73.05,-96.8
73.075,-96.9
73.1,-95.6
73.125,-96.1
73.15,-97.0
73.175,-97.3
73.2,-97.8
73.225,-97.9
73.25,-97.8
73.275,-97.2
73.3,-97.6
73.325,-98.4
73.35,-97.3
73.375,-96.4
73.4,-97.7
73.425,-96.6
73.45,-97.9
73.475,-99.0
73.5,-100.0
73.525,-99.5
73.55,-99.1
73.575,-99.3
73.6,-98.3
73.625,-98.4
73.65,-98.9
73.675,-96.9
73.7,-96.3
73.725,-98.9
73.75,-96.5
73.775,-98.6
73.8,-98.5
73.825,-97.2
73.85,-96.6
73.875,-96.8
73.9,-96.6
73.925,-98.2
73.95,-97.7
73.975,-97.0
74.0,-96.6
74.0,-97.3
74.025,-97.5
74.05,-99.0
74.075,-96.3
74.1,-98.5
74.125,-97.2
74.15,-98.2
74.175,-94.3
74.2,-92.7
74.225,-92.3
74.25,-90.5
74.275,-91.6
74.3,-91.6
74.325,-93.4
74.35,-95.8
74.375,-96.6
74.4,-98.0
74.425,-97.8
74.45,-98.5
74.475,-96.6
74.5,-99.3
74.525,-99.3
74.55,-98.3
74.575,-97.4
74.6,-99.5
74.625,-97.9
74.65,-99.1
74.675,-98.1
74.7,-99.4
74.725,-98.4
74.75,-99.8
74.775,-98.6
74.8,-96.9
74.825,-97.6
74.85,-99.8
74.875,-99.1
74.9,-99.4
74.925,-99.0
74.95,-98.6
74.975,-97.6
75.0,-98.4
75.025,-99.4
75.05,-98.9
75.075,-96.6
75.1,-98.5
75.125,-96.9
75.15,-98.6
75.175,-99.5
75.2,-99.1
75.225,-100.0
75.25,-96.9
75.275,-99.0
75.3,-99.6
75.325,-97.9
75.35,-99.8
75.375,-98.7
75.4,-99.9
75.425,-98.8
75.45,-100.1
75.475,-98.1
75.5,-99.8
75.525,-100.3
75.55,-98.0
75.575,-99.6
75.6,-99.1
75.625,-99.3
75.65,-98.3
75.675,-98.9
75.7,-99.1
75.725,-98.8
75.75,-98.5
75.775,-98.7
75.8,-97.4
75.825,-98.8
75.85,-98.8
75.875,-99.5
75.9,-96.6
75.925,-97.8
75.95,-98.4
75.975,-99.0
76.0,-97.5
76.025,-99.3
76.05,-99.5
76.075,-99.9
76.1,-99.0
76.125,-97.8
76.15,-99.8
76.175,-99.7
76.2,-97.7
76.225,-99.6
76.25,-99.0
76.275,-97.8
76.3,-97.3
76.325,-99.7
76.35,-99.0
76.375,-99.8
76.4,-99.6
76.425,-99.1
76.45,-97.2
76.475,-98.1
76.5,-99.1
76.525,-99.8
76.55,-99.7
76.575,-98.5
76.6,-98.1
76.625,-98.9
76.65,-97.2
76.675,-99.0
76.7,-99.4
76.725,-99.6
76.75,-99.4
76.775,-98.6
76.8,-99.3
76.825,-97.6
76.85,-99.8
76.875,-98.8
76.9,-99.2
76.925,-98.1
76.95,-99.4
76.975,-99.3
77.0,-99.3
77.025,-98.3
77.05,-99.2
77.075,-98.8
77.1,-99.1
77.125,-97.8
77.15,-99.1
77.175,-96.5
77.2,-99.0
77.225,-98.7
77.25,-97.7
77.275,-98.6
77.3,-98.9
77.325,-98.4
77.35,-99.3
77.375,-96.9
77.4,-100.2
77.425,-99.9
77.45,-98.4
77.475,-97.3
77.5,-100.0
77.525,-99.1
77.55,-98.3
77.575,-98.0
77.6,-99.6
77.625,-99.7
77.65,-99.0
77.675,-98.8
77.7,-98.8
77.725,-99.4
77.75,-99.5
77.775,-98.4
77.8,-98.6
77.825,-99.6
77.85,-96.9
77.875,-99.5
77.9,-98.5
77.925,-99.9
77.95,-98.2
77.975,-98.9
78.0,-99.1
78.025,-99.9
78.05,-99.0
78.075,-98.5
78.1,-99.0
78.125,-98.3
78.15,-98.7
78.175,-98.5
78.2,-100.4
78.225,-99.9
78.25,-98.8
78.275,-100.0
78.3,-97.5
78.325,-97.9
78.35,-100.0
78.375,-98.7
78.4,-98.2
78.425,-99.5
78.45,-98.6
78.475,-100.6
78.5,-96.0
78.525,-98.7
78.55,-99.6
78.575,-98.7
78.6,-98.1
78.625,-97.4
78.65,-98.9
78.675,-99.3
78.7,-98.7
78.725,-99.4
78.75,-100.1
78.775,-97.8
78.8,-98.9
78.825,-99.3
78.85,-97.3
78.875,-98.5
78.9,-99.0
78.925,-99.0
78.95,-100.4
78.975,-97.8
79.0,-99.3
79.025,-99.7
79.05,-98.2
79.075,-98.9
79.1,-98.9
79.125,-98.6
79.15,-101.6
79.175,-100.1
79.2,-99.3
79.225,-100.8
79.25,-100.3
79.275,-99.1
79.3,-99.3
79.325,-100.3
79.35,-99.4
79.375,-97.7
79.4,-99.5
79.425,-99.0
79.45,-99.0
79.475,-100.1
79.5,-97.4
79.525,-99.6
79.55,-100.3
79.575,-100.5
79.6,-99.5
79.625,-99.3
79.65,-99.7
79.675,-99.4
79.7,-98.4
79.725,-98.9
79.75,-99.0
79.775,-99.4
79.8,-100.8
79.825,-98.9
79.85,-99.3
79.875,-99.5
79.9,-99.7
79.925,-95.8
79.95,-98.5
79.975,-95.9
80.0,-96.5
80.025,-96.6
80.05,-97.3
80.075,-96.1
80.1,-99.1
80.125,-98.3
80.15,-99.4
80.175,-98.8
80.2,-100.8
80.225,-99.1
80.25,-99.3
80.275,-98.6
80.3,-99.4
80.325,-99.4
80.35,-99.7
80.375,-98.9
80.4,-100.9
80.425,-98.4
80.45,-100.6
80.475,-98.5
80.5,-99.4
80.525,-99.4
80.55,-100.2
80.575,-98.2
80.6,-100.2
80.625,-100.8
80.65,-99.4
80.675,-100.7
80.7,-99.6
80.725,-101.0
80.75,-100.7
80.775,-97.9
80.8,-100.5
80.825,-100.2
80.85,-99.6
80.875,-98.7
80.9,-99.1
80.925,-98.7
80.95,-100.3
80.975,-99.7
81.0,-100.2
81.025,-98.1
81.05,-99.9
81.075,-99.0
81.1,-98.5
81.125,-99.5
81.15,-99.0
81.175,-100.2
81.2,-99.5
81.225,-99.9
81.25,-98.7
81.275,-99.5
81.3,-98.8
81.325,-97.4
81.35,-98.4
81.375,-98.5
81.4,-99.0
81.425,-97.3
81.45,-100.2
81.475,-98.8
81.5,-97.7
81.525,-98.7
81.55,-99.1
81.575,-99.4
81.6,-99.4
81.625,-98.2
81.65,-98.0
81.675,-99.1
81.7,-99.6
81.725,-99.8
81.75,-98.3
81.775,-97.7
81.8,-99.2
81.825,-98.5
81.85,-100.5
81.875,-99.4
81.9,-99.0
81.925,-98.2
81.95,-99.0
81.975,-98.9
82.0,-99.3
82.025,-99.4
82.05,-98.6
82.075,-100.8
82.1,-98.9
82.125,-98.6
82.15,-97.6
82.175,-98.3
82.2,-98.3
82.225,-99.3
82.25,-97.3
82.275,-99.1
82.3,-98.5
82.325,-99.5
82.35,-98.8
82.375,-99.4
82.4,-98.6
82.425,-98.3
82.45,-98.9
82.475,-98.7
82.5,-96.9
82.525,-98.0
82.55,-98.1
82.575,-98.6
82.6,-97.7
82.625,-97.6
82.65,-98.2
82.675,-99.2
82.7,-97.2
82.725,-99.9
82.75,-98.1
82.775,-99.2
82.8,-98.2
82.825,-96.5
82.85,-98.1
82.875,-98.1
82.9,-98.2
82.925,-98.5
82.95,-96.4
82.975,-97.3
83.0,-98.5
83.025,-99.4
83.05,-97.5
83.075,-98.4
83.1,-97.6
83.125,-98.7
83.15,-99.1
83.175,-99.1
83.2,-99.6
83.225,-99.3
83.25,-98.4
83.275,-97.8
83.3,-97.7
83.325,-98.3
83.35,-95.4
83.375,-96.9
83.4,-95.6
83.425,-98.4
83.45,-98.2
83.475,-98.8
83.5,-99.8
83.525,-98.3
83.55,-98.7
83.575,-99.2
83.6,-96.7
83.625,-99.9
83.65,-99.1
83.675,-98.8
83.7,-98.8
83.725,-98.6
83.75,-98.0
83.775,-99.6
83.8,-99.1
83.825,-98.9
83.85,-98.6
83.875,-99.1
83.9,-97.1
83.925,-96.4
83.95,-96.6
83.975,-96.1
84.0,-94.8
84.0,-94.2
84.025,-95.3
84.05,-96.0
84.075,-96.5
84.1,-97.8
84.125,-96.9
84.15,-98.7
84.175,-99.7
84.2,-97.4
84.225,-97.6
84.25,-98.4
84.275,-99.0
84.3,-99.5
84.325,-99.0
84.35,-99.3
84.375,-99.3
84.4,-99.9
84.425,-98.3
84.45,-98.9
84.475,-99.2
84.5,-99.5
84.525,-98.4
84.55,-100.3
84.575,-99.1
84.6,-98.7
84.625,-99.1
84.65,-98.6
84.675,-98.0
84.7,-96.3
84.725,-98.6
84.75,-98.2
84.775,-98.7
84.8,-99.8
84.825,-99.4
84.85,-100.5
84.875,-99.1
84.9,-98.8
84.925,-98.7
84.95,-97.9
84.975,-99.2
85.0,-98.1
85.025,-99.7
85.05,-99.8
85.075,-98.7
85.1,-99.8
85.125,-97.8
85.15,-97.0
85.175,-97.6
85.2,-99.2
85.225,-99.5
85.25,-99.4
85.275,-98.9
85.3,-100.2
85.325,-98.8
85.35,-99.3
85.375,-99.0
85.4,-97.3
85.425,-98.7
85.45,-97.9
85.475,-98.0
85.5,-99.2
85.525,-96.7
85.55,-95.8
85.575,-98.0
85.6,-95.3
85.625,-92.6
85.65,-94.4
85.675,-94.2
85.7,-95.5
85.725,-96.2
85.75,-98.6
85.775,-96.9
85.8,-98.6
85.825,-99.1
85.85,-98.1
85.875,-98.0
85.9,-99.2
85.925,-99.3
85.95,-99.1
85.975,-99.8
86.0,-97.5
86.025,-98.6
86.05,-98.1
86.075,-100.0
86.1,-98.2
86.125,-98.0
86.15,-98.4
86.175,-96.7
86.2,-97.9
86.225,-99.1
86.25,-99.7
86.275,-99.6
86.3,-97.5
86.325,-99.7
86.35,-99.2
86.375,-98.3
86.4,-98.4
86.425,-97.1
86.45,-99.3
86.475,-99.2
86.5,-99.0
86.525,-98.6
86.55,-99.5
86.575,-97.7
86.6,-97.4
86.625,-98.4
86.65,-98.6
86.675,-98.4
86.7,-98.4
86.725,-98.0
86.75,-97.9
86.775,-99.5
86.8,-98.7
86.825,-98.5
86.85,-98.8
86.875,-98.1
86.9,-96.9
86.925,-97.5
86.95,-98.4
86.975,-97.6
87.0,-96.8
87.025,-97.5
87.05,-95.9
87.075,-96.4
87.1,-97.3
87.125,-96.7
87.15,-96.9
87.175,-97.0
87.2,-96.4
87.225,-97.5
87.25,-98.4
87.275,-97.1
87.3,-96.6
87.325,-98.1
87.35,-98.4
87.375,-98.4
87.4,-97.6
87.425,-98.8
87.45,-98.7
87.475,-96.6
87.5,-97.9
87.525,-97.1
87.55,-97.5
87.575,-97.6
87.6,-97.1
87.625,-96.6
87.65,-98.0
87.675,-97.0
87.7,-96.9
87.725,-97.4
87.75,-98.1
87.775,-97.4
87.8,-98.9
87.825,-98.2
87.85,-98.3
87.875,-96.9
87.9,-96.7
87.925,-97.7
87.95,-96.9
87.975,-95.2
88.0,-96.6
88.025,-93.9
88.05,-93.3
88.075,-97.2
88.1,-97.2
88.125,-97.0
88.15,-98.1
88.175,-96.9
88.2,-97.2
88.225,-97.6
88.25,-96.6
88.275,-96.7
88.3,-95.7
88.325,-96.2
88.35,-98.4
88.375,-96.9
88.4,-96.7
88.425,-96.7
88.45,-96.2
88.475,-96.4
88.5,-94.9
88.525,-96.3
88.55,-96.2
88.575,-97.3
88.6,-97.8
88.625,-97.9
88.65,-97.7
88.675,-99.1
88.7,-99.0
88.725,-96.9
88.75,-96.7
88.775,-97.3
88.8,-97.5
88.825,-98.6
88.85,-96.5
88.875,-98.4
88.9,-96.6
88.925,-98.4
88.95,-98.6
88.975,-97.8
89.0,-97.9
89.025,-99.7
89.05,-97.6
89.075,-99.2
89.1,-97.7
89.125,-97.9
89.15,-97.5
89.175,-98.6
89.2,-99.8
89.225,-99.1
89.25,-98.9
89.275,-97.2
89.3,-97.7
89.325,-97.5
89.35,-96.4
89.375,-99.5
89.4,-97.7
89.425,-98.7
89.45,-98.2
89.475,-98.3
89.5,-97.0
89.525,-98.5
89.55,-97.3
89.575,-97.3
89.6,-98.9
89.625,-97.7
89.65,-99.0
89.675,-96.5
89.7,-99.7
89.725,-99.8
89.75,-97.9
89.775,-98.9
89.8,-98.4
89.825,-98.9
89.85,-98.7
89.875,-98.2
89.9,-98.1
89.925,-99.0
89.95,-96.6
89.975,-97.2
90.0,-98.9
90.025,-98.7
90.05,-99.0
90.075,-99.6
90.1,-99.4
90.125,-98.3
90.15,-96.9
90.175,-98.2
90.2,-99.8
90.225,-99.4
90.25,-98.3
90.275,-98.7
90.3,-98.0
90.325,-96.2
90.35,-98.8
90.375,-98.4
90.4,-98.7
90.425,-98.5
90.45,-100.6
90.475,-99.7
90.5,-98.2
90.525,-99.6
90.55,-98.4
90.575,-99.5
90.6,-99.3
90.625,-100.3
90.65,-98.7
90.675,-101.0
90.7,-98.4
90.725,-98.1
90.75,-99.4
90.775,-97.8
90.8,-98.0
90.825,-98.2
90.85,-99.1
90.875,-98.7
90.9,-98.9
90.925,-98.8
90.95,-98.2
90.975,-99.6
91.0,-98.9
91.025,-98.8
91.05,-99.2
91.075,-98.1
91.1,-96.7
91.125,-97.1
91.15,-97.7
91.175,-98.8
91.2,-99.2
91.225,-97.9
91.25,-96.7
91.275,-95.6
91.3,-95.9
91.325,-96.4
91.35,-98.2
91.375,-98.4
91.4,-99.1
91.425,-98.4
91.45,-98.1
91.475,-99.6
91.5,-99.0
91.525,-100.3
91.55,-100.4
91.575,-97.6
91.6,-98.3
91.625,-99.3
91.65,-99.0
91.675,-98.7
91.7,-100.2
91.725,-99.3
91.75,-98.8
91.775,-99.9
91.8,-99.0
91.825,-98.9
91.85,-98.5
91.875,-99.0
91.9,-100.3
91.925,-98.4
91.95,-98.6
91.975,-100.0
92.0,-100.4
92.025,-98.7
92.05,-97.7
92.075,-99.3
92.1,-98.5
92.125,-97.9
92.15,-99.8
92.175,-99.1
92.2,-100.8
92.225,-99.0
92.25,-99.5
92.275,-96.1
92.3,-100.1
92.325,-98.8
92.35,-99.3
92.375,-98.3
92.4,-98.2
92.425,-99.1
92.45,-99.3
92.475,-98.1
92.5,-97.4
92.525,-97.8
92.55,-99.2
92.575,-98.7
92.6,-98.1
92.625,-98.5
92.65,-99.3
92.675,-98.5
92.7,-99.6
92.725,-97.2
92.75,-98.2
92.775,-98.3
92.8,-98.3
92.825,-99.5
92.85,-97.5
92.875,-95.3
92.9,-98.0
92.925,-99.1
92.95,-99.9
92.975,-98.3
93.0,-99.2
93.025,-100.2
93.05,-99.1
93.075,-98.3
93.1,-98.9
93.125,-98.7
93.15,-100.2
93.175,-98.8
93.2,-99.4
93.225,-99.7
93.25,-98.9
93.275,-100.2
93.3,-99.0
93.325,-97.9
93.35,-99.8
93.375,-98.9
93.4,-99.4
93.425,-98.2
93.45,-99.1
93.475,-100.1
93.5,-99.1
93.525,-98.1
93.55,-98.3
93.575,-99.2
93.6,-99.1
93.625,-96.6
93.65,-98.9
93.675,-99.0
93.7,-99.2
93.725,-98.8
93.75,-98.3
93.775,-99.0
93.8,-98.6
93.825,-99.4
93.85,-100.7
93.875,-98.8
93.9,-99.0
93.925,-99.1
93.95,-99.7
93.975,-99.3
94.0,-99.2
94.0,-98.4
94.025,-97.5
94.05,-98.4
94.075,-97.8
94.1,-97.5
94.125,-99.8
94.15,-97.8
94.175,-98.3
94.2,-98.3
94.225,-98.2
94.25,-100.0
94.275,-99.0
94.3,-99.5
94.325,-99.0
94.35,-100.3
94.375,-98.4
94.4,-96.9
94.425,-99.8
94.45,-98.7
94.475,-97.5
94.5,-98.2
94.525,-99.7
94.55,-100.3
94.575,-98.6
94.6,-98.2
94.625,-98.5
94.65,-97.8
94.675,-100.0
94.7,-99.1
94.725,-98.5
94.75,-98.7
94.775,-97.8
94.8,-95.9
94.825,-93.7
94.85,-90.7
94.875,-91.0
94.9,-92.0
94.925,-91.6
94.95,-92.1
94.975,-91.3
95.0,-94.0
95.025,-96.7
95.05,-97.0
95.075,-98.6
95.1,-99.9
95.125,-99.9
95.15,-98.5
95.175,-98.5
95.2,-99.3
95.225,-99.3
95.25,-98.7
95.275,-98.7
95.3,-99.2
95.325,-98.5
95.35,-98.6
95.375,-99.4
95.4,-98.5
95.425,-98.5
95.45,-99.1
95.475,-99.1
95.5,-99.3
95.525,-98.6
95.55,-99.2
95.575,-100.4
95.6,-99.5
95.625,-98.6
95.65,-98.7
95.675,-98.2
95.7,-98.4
95.725,-97.8
95.75,-98.0
95.775,-98.0
95.8,-98.5
95.825,-97.9
95.85,-96.5
95.875,-96.3
95.9,-95.4
95.925,-95.9
95.95,-96.0
95.975,-95.4
96.0,-96.9
96.025,-97.5
96.05,-98.6
96.075,-97.0
96.1,-99.2
96.125,-97.8
96.15,-98.9
96.175,-96.8
96.2,-98.2
96.225,-98.5
96.25,-99.2
96.275,-98.7
96.3,-99.7
96.325,-97.6
96.35,-97.7
96.375,-99.1
96.4,-98.5
96.425,-97.7
96.45,-96.6
96.475,-98.2
96.5,-99.3
96.525,-99.6
96.55,-98.6
96.575,-97.3
96.6,-99.1
96.625,-99.6
96.65,-98.6
96.675,-100.3
96.7,-98.7
96.725,-97.5
96.75,-97.0
96.775,-97.6
96.8,-98.6
96.825,-99.1
96.85,-100.6
96.875,-99.3
96.9,-96.9
96.925,-98.6
96.95,-99.4
96.975,-98.4
97.0,-99.3
97.025,-99.0
97.05,-97.7
97.075,-98.2
97.1,-98.3
97.125,-98.1
97.15,-97.3
97.175,-98.7
97.2,-98.9
97.225,-99.8
97.25,-99.2
97.275,-99.1
97.3,-99.5
97.325,-99.7
97.35,-97.1
97.375,-98.0
97.4,-99.1
97.425,-96.6
97.45,-99.6
97.475,-99.9
97.5,-98.8
97.525,-99.1
97.55,-100.0
97.575,-97.9
97.6,-99.9
97.625,-99.1
97.65,-99.2
97.675,-98.9
97.7,-99.9
97.725,-98.1
97.75,-99.2
97.775,-99.2
97.8,-99.9
97.825,-100.3
97.85,-99.7
97.875,-97.1
97.9,-98.9
97.925,-100.4
97.95,-98.7
97.975,-98.3
98.0,-98.5
98.025,-99.4
98.05,-98.5
98.075,-99.1
98.1,-95.9
98.125,-99.4
98.15,-97.1
98.175,-97.7
98.2,-98.9
98.225,-97.9
98.25,-98.9
98.275,-99.3
98.3,-98.9
98.325,-98.4
98.35,-99.1
98.375,-99.0
98.4,-98.4
98.425,-99.6
98.45,-99.0
98.475,-97.5
98.5,-99.1
98.525,-99.4
98.55,-100.1
98.575,-97.8
98.6,-99.0
98.625,-99.5
98.65,-98.9
98.675,-99.3
98.7,-98.6
98.725,-99.1
98.75,-97.9
98.775,-100.2
98.8,-100.3
98.825,-98.2
98.85,-98.0
98.875,-98.0
98.9,-100.6
98.925,-99.9
98.95,-99.5
98.975,-98.4
99.0,-100.0
99.025,-99.0
99.05,-99.3
99.075,-99.6
99.1,-97.4
99.125,-96.7
99.15,-98.6
99.175,-98.4
99.2,-99.6
99.225,-98.6
99.25,-97.6
99.275,-99.3
99.3,-98.6
99.325,-98.0
99.35,-98.6
99.375,-99.3
99.4,-99.3
99.425,-98.2
99.45,-98.4
99.475,-100.5
99.5,-99.2
99.525,-98.0
99.55,-100.2
99.575,-98.0
99.6,-98.4
99.625,-97.4
99.65,-97.9
99.675,-98.5
99.7,-99.1
99.725,-99.4
99.75,-98.8
99.775,-98.3
99.8,-98.3
99.825,-96.8
99.85,-96.9
99.875,-97.3
99.9,-96.0
99.925,-96.0
99.95,-96.7
99.975,-96.3
100.0,-95.7
100.025,-94.9
100.05,-96.9
100.075,-96.3
100.1,-97.3
100.125,-98.8
100.15,-98.4
100.175,-99.3
100.2,-98.5
100.225,-98.6
100.25,-96.3
100.275,-96.9
100.3,-98.4
100.325,-98.7
100.35,-99.2
100.375,-99.2
100.4,-98.8
100.425,-98.0
100.45,-99.7
100.475,-98.4
100.5,-99.2
100.525,-97.3
100.55,-95.4
100.575,-99.6
100.6,-98.5
100.625,-99.7
100.65,-97.1
100.675,-97.2
100.7,-96.2
100.725,-97.8
100.75,-95.9
100.775,-97.8
100.8,-98.8
100.825,-96.8
100.85,-98.7
100.875,-98.0
100.9,-99.3
100.925,-100.4
100.95,-98.3
100.975,-98.6
101.0,-99.2
101.025,-98.5
101.05,-99.6
101.075,-99.0
101.1,-97.4
101.125,-99.1
101.15,-96.3
101.175,-98.4
101.2,-97.6
101.225,-98.8
101.25,-98.9
101.275,-97.8
101.3,-97.9
101.325,-98.6
101.35,-97.6
101.375,-98.3
101.4,-99.9
101.425,-99.7
101.45,-98.3
101.475,-99.4
101.5,-99.3
101.525,-99.0
101.55,-99.3
101.575,-98.9
101.6,-97.7
101.625,-98.8
101.65,-99.4
101.675,-98.2
101.7,-98.4
101.725,-98.5
101.75,-97.7
101.775,-99.3
101.8,-97.4
101.825,-97.9
101.85,-98.0
101.875,-97.6
101.9,-98.0
101.925,-97.5
101.95,-98.8
101.975,-98.4
102.0,-97.2
102.025,-98.0
102.05,-96.7
102.075,-96.4
102.1,-95.7
102.125,-95.4
102.15,-96.6
102.175,-96.1
102.2,-98.9
102.225,-98.4
102.25,-98.4
102.275,-97.2
102.3,-99.1
102.325,-96.5
102.35,-97.7
102.375,-97.8
102.4,-98.5
102.425,-99.2
102.45,-98.6
102.475,-97.4
102.5,-98.1
102.525,-94.9
102.55,-95.0
102.575,-96.2
102.6,-96.1
102.625,-96.6
102.65,-96.9
102.675,-97.1
102.7,-95.8
102.725,-98.4
102.75,-98.2
102.775,-99.5
102.8,-97.0
102.825,-98.4
102.85,-99.0
102.875,-98.8
102.9,-97.9
102.925,-97.0
102.95,-99.0
102.975,-97.1
103.0,-95.2
103.025,-94.0
103.05,-94.2
103.075,-93.8
103.1,-94.4
103.125,-94.6
103.15,-96.2
103.175,-97.8
103.2,-96.9
103.225,-97.1
103.25,-99.5
103.275,-98.9
103.3,-98.0
103.325,-98.0
103.35,-98.4
103.375,-97.2
103.4,-99.3
103.425,-97.3
103.45,-98.9
103.475,-97.9
103.5,-97.4
103.525,-97.9
103.55,-96.8
103.575,-97.4
103.6,-97.9
103.625,-96.3
103.65,-98.1
103.675,-99.0
103.7,-98.3
103.725,-97.7
103.75,-99.6
103.775,-98.7
103.8,-98.5
103.825,-97.8
103.85,-98.2
103.875,-99.2
103.9,-97.4
103.925,-98.2
103.95,-95.8
103.975,-98.6
104.0,-97.7
104.0,-103.3
104.025,-102.0
104.05,-103.6
104.075,-101.2
104.1,-104.5
104.125,-104.9
104.15,-102.6
104.175,-102.9
104.2,-105.1
104.225,-104.2
104.25,-104.3
104.275,-103.4
104.3,-104.9
104.325,-102.7
104.35,-105.1
104.375,-103.5
104.4,-104.6
104.425,-102.6
104.45,-103.4
104.475,-102.8
104.5,-102.7
104.525,-103.6
104.55,-105.0
104.575,-102.1
104.6,-104.9
104.625,-104.8
104.65,-104.6
104.675,-104.4
104.7,-102.1
104.725,-103.3
104.75,-103.8
104.775,-104.1
104.8,-103.5
104.825,-101.7
104.85,-104.6
104.875,-103.9
104.9,-102.2
104.925,-103.9
104.95,-103.1
104.975,-104.1
105.0,-103.2
105.025,-104.4
105.05,-102.3
105.075,-103.0
105.1,-102.5
105.125,-104.8
105.15,-102.1
105.175,-103.8
105.2,-104.8
105.225,-104.5
105.25,-103.5
105.275,-103.4
105.3,-103.9
105.325,-104.5
105.35,-104.0
105.375,-103.5
105.4,-102.1
105.425,-102.8
105.45,-103.1
105.475,-104.0
105.5,-104.6
105.525,-102.6
105.55,-101.3
105.575,-103.7
105.6,-102.5
105.625,-101.1
105.65,-103.4
105.675,-103.0
105.7,-102.0
105.725,-103.6
105.75,-102.7
105.775,-104.4
105.8,-102.2
105.825,-102.8
105.85,-104.8
105.875,-100.4
105.9,-99.5
105.925,-103.8
105.95,-104.4
105.975,-103.6
106.0,-103.4
106.025,-101.7
106.05,-103.8
106.075,-103.7
106.1,-102.1
106.125,-104.0
106.15,-105.1
106.175,-103.1
106.2,-102.0
106.225,-104.8
106.25,-102.7
106.275,-104.2
106.3,-104.3
106.325,-105.4
106.35,-104.3
106.375,-102.8
106.4,-102.3
106.425,-103.5
106.45,-104.2
106.475,-104.5
106.5,-103.5
106.525,-103.5
106.55,-103.1
106.575,-101.4
106.6,-104.2
106.625,-103.9
106.65,-104.5
106.675,-102.1
106.7,-101.0
106.725,-101.6
106.75,-102.3
106.775,-103.0
106.8,-103.7
106.825,-104.2
106.85,-101.7
106.875,-104.7
106.9,-102.4
106.925,-104.8
106.95,-103.9
106.975,-103.9
107.0,-104.0
107.025,-104.0
107.05,-103.2
107.075,-102.4
107.1,-99.1
107.125,-102.9
107.15,-102.7
107.175,-103.6
107.2,-102.7
107.225,-102.6
107.25,-103.5
107.275,-102.9
107.3,-101.9
107.325,-102.3
107.35,-102.7
107.375,-101.6
107.4,-102.7
107.425,-104.2
107.45,-104.8
107.475,-104.3
107.5,-104.0
107.525,-103.5
107.55,-101.7
107.575,-102.9
107.6,-105.7
107.625,-103.2
107.65,-103.8
107.675,-102.8
107.7,-102.9
107.725,-102.3
107.75,-103.6
107.775,-103.6
107.8,-103.0
107.825,-102.9
107.85,-101.9
107.875,-104.0
107.9,-104.0
107.925,-103.4
107.95,-105.6
107.975,-103.2
108.0,-102.2
108.025,-103.6
108.05,-103.3
108.075,-104.3
108.1,-103.5
108.125,-103.3
108.15,-103.9
108.175,-102.4
108.2,-104.7
108.225,-100.4
108.25,-100.9
108.275,-101.7
108.3,-102.4
108.325,-103.7
108.35,-103.1
108.375,-104.3
108.4,-102.0
108.425,-103.8
108.45,-103.1
108.475,-103.1
108.5,-103.2
108.525,-103.3
108.55,-104.1
108.575,-104.4
108.6,-103.1
108.625,-102.3
108.65,-102.8
108.675,-101.3
108.7,-95.0
108.725,-94.7
108.75,-102.9
108.775,-100.3
108.8,-102.9
108.825,-103.6
108.85,-103.2
108.875,-104.6
108.9,-104.9
108.925,-102.3
108.95,-103.4
108.975,-102.9
109.0,-102.6
174.0,-86.8
174.025,-86.8
174.05,-86.8
174.075,-85.9
174.1,-85.9
174.125,-85.9
174.15,-85.9
174.175,-85.9
174.2,-85.9
174.225,-86.1
174.25,-86.1
174.275,-86.1
174.3,-86.1
174.325,-86.1
174.35,-86.1
174.375,-86.1
174.4,-86.5
174.425,-86.5
174.45,-86.5
174.475,-86.5
174.5,-86.5
174.525,-86.5
174.55,-85.5
174.575,-85.5
174.6,-85.5
174.625,-85.5
174.65,-85.5
174.675,-85.5
174.7,-85.5
174.725,-84.3
174.75,-84.3
174.775,-84.3
174.8,-84.3
174.825,-84.3
174.85,-84.3
174.875,-84.6
174.9,-84.6
174.925,-84.6
174.95,-84.6
174.975,-84.6
175.0,-84.6
175.025,-84.6
175.05,-85.4
175.075,-85.4
175.1,-85.4
175.125,-85.4
175.15,-85.4
175.175,-85.4
175.2,-84.9
175.225,-84.9
175.25,-84.9
175.275,-84.9
175.3,-84.9
175.325,-84.9
175.35,-84.9
175.375,-85.0
175.4,-85.0
175.425,-85.0
175.45,-85.0
175.475,-85.0
175.5,-85.0
175.525,-85.5
175.55,-85.5
175.575,-85.5
175.6,-85.5
175.625,-85.5
175.65,-85.5
175.675,-85.5
175.7,-85.8
175.725,-85.8
175.75,-85.8
175.775,-85.8
175.8,-85.8
175.825,-85.8
175.85,-85.0
175.875,-85.0
175.9,-85.0
175.925,-85.0
175.95,-85.0
175.975,-85.0
176.0,-85.0
176.025,-85.1
176.05,-85.1
176.075,-85.1
176.1,-85.1
176.125,-85.1
176.15,-85.1
176.175,-85.5
176.2,-85.5
176.225,-85.5
176.25,-85.5
176.275,-85.5
176.3,-85.5
176.325,-85.5
176.35,-83.6
176.375,-83.6
176.4,-83.6
176.425,-83.6
176.45,-83.6
176.475,-83.6
176.5,-84.3
176.525,-84.3
176.55,-84.3
176.575,-84.3
176.6,-84.3
176.625,-84.3
176.65,-84.3
176.675,-84.8
176.7,-84.8
176.725,-84.8
176.75,-84.8
176.775,-84.8
176.8,-84.8
176.825,-84.8
176.85,-85.0
176.875,-85.0
176.9,-85.0
176.925,-85.0
176.95,-85.0
176.975,-85.0
177.0,-85.1
177.025,-85.1
177.05,-85.1
177.075,-85.1
177.1,-85.1
177.125,-85.1
177.15,-85.1
177.175,-84.3
177.2,-84.3
177.225,-84.3
177.25,-84.3
177.275,-84.3
177.3,-84.3
177.325,-85.5
177.35,-85.5
177.375,-85.5
177.4,-85.5
177.425,-85.5
177.45,-85.5
177.475,-85.5
177.5,-84.9
177.525,-84.9
177.55,-84.9
177.575,-84.9
177.6,-84.9
177.625,-84.9
177.65,-84.0
177.675,-84.0
177.7,-84.0
177.725,-84.0
177.75,-84.0
177.775,-84.0
177.8,-84.0
177.825,-83.7
177.85,-83.7
177.875,-83.7
177.9,-83.7
177.925,-83.7
177.95,-83.7
177.975,-84.9
178.0,-84.9
178.025,-84.9
178.05,-84.9
178.075,-84.9
178.1,-84.9
178.125,-84.9
178.15,-83.6
178.175,-83.6
178.2,-83.6
178.225,-83.6
178.25,-83.6
178.275,-83.6
178.3,-83.5
178.325,-83.5
178.35,-83.5
178.375,-83.5
178.4,-83.5
178.425,-83.5
178.45,-83.5
178.475,-83.1
178.5,-83.1
178.525,-83.1
178.55,-83.1
178.575,-83.1
178.6,-83.1
178.625,-83.3
178.65,-83.3
178.675,-83.3
178.7,-83.3
178.725,-83.3
178.75,-83.3
178.775,-83.3
178.8,-83.9
178.825,-83.9
178.85,-83.9
178.875,-83.9
178.9,-83.9
178.925,-83.9
178.95,-81.8
178.975,-81.8
179.0,-81.8
179.025,-81.8
179.05,-81.8
179.075,-81.8
179.1,-81.8
179.125,-83.1
179.15,-83.1
179.175,-83.1
179.2,-83.1
179.225,-83.1
179.25,-83.1
179.275,-83.2
179.3,-83.2
179.325,-83.2
179.35,-83.2
179.375,-83.2
179.4,-83.2
179.425,-83.2
179.45,-82.0
179.475,-82.0
179.5,-82.0
179.525,-82.0
179.55,-82.0
179.575,-82.0
179.6,-83.9
179.625,-83.9
179.65,-83.9
179.675,-83.9
179.7,-83.9
179.725,-83.9
179.75,-83.9
179.775,-82.4
179.8,-82.4
179.825,-82.4
179.85,-82.4
179.875,-82.4
179.9,-82.4
179.925,-80.3
179.95,-80.3
179.975,-80.3
180.0,-80.3
180.025,-80.3
180.05,-80.3
180.075,-80.3
180.1,-81.8
180.125,-81.8
180.15,-81.8
180.175,-81.8
180.2,-81.8
180.225,-81.8
180.25,-83.8
180.275,-83.8
180.3,-83.8
180.325,-83.8
180.35,-83.8
180.375,-83.8
180.4,-83.8
180.425,-81.7
180.45,-81.7
180.475,-81.7
180.5,-81.7
180.525,-81.7
180.55,-81.7
180.575,-81.7
180.6,-82.5
180.625,-82.5
180.65,-82.5
180.675,-82.5
180.7,-82.5
180.725,-82.5
180.75,-82.9
180.775,-82.9
180.8,-82.9
180.825,-82.9
180.85,-82.9
180.875,-82.9
180.9,-82.9
180.925,-81.3
180.95,-81.3
180.975,-81.3
181.0,-81.3
181.025,-81.3
181.05,-81.3
181.075,-82.2
181.1,-82.2
181.125,-82.2
181.15,-82.2
181.175,-82.2
181.2,-82.2
181.225,-82.2
181.25,-83.4
181.275,-83.4
181.3,-83.4
181.325,-83.4
181.35,-83.4
181.375,-83.4
181.4,-83.1
181.425,-83.1
181.45,-83.1
181.475,-83.1
181.5,-83.1
181.525,-83.1
181.55,-83.1
181.575,-82.7
181.6,-82.7
181.625,-82.7
181.65,-82.7
181.675,-82.7
181.7,-82.7
181.725,-82.5
181.75,-82.5
181.775,-82.5
181.8,-82.5
181.825,-82.5
181.85,-82.5
181.875,-82.5
181.9,-83.2
181.925,-83.2
181.95,-83.2
181.975,-83.2
182.0,-83.2
182.025,-83.2
182.05,-81.4
182.075,-81.4
182.1,-81.4
182.125,-81.4
182.15,-81.4
182.175,-81.4
182.2,-81.4
182.225,-82.3
182.25,-82.3
182.275,-82.3
182.3,-82.3
182.325,-82.3
182.35,-82.3
182.375,-82.6
182.4,-82.6
182.425,-82.6
182.45,-82.6
182.475,-82.6
182.5,-82.6
182.525,-82.6
182.55,-81.8
182.575,-81.8
182.6,-81.8
182.625,-81.8
182.65,-81.8
182.675,-81.8
182.7,-81.6
182.725,-81.6
182.75,-81.6
182.775,-81.6
182.8,-81.6
182.825,-81.6
182.85,-81.6
182.875,-81.1
182.9,-81.1
182.925,-81.1
182.95,-81.1
182.975,-81.1
183.0,-81.1
183.025,-82.2
183.05,-82.2
183.075,-82.2
183.1,-82.2
183.125,-82.2
183.15,-82.2
183.175,-82.2
183.2,-81.1
183.225,-81.1
183.25,-81.1
183.275,-81.1
183.3,-81.1
183.325,-81.1
183.35,-83.7
183.375,-83.7
183.4,-83.7
183.425,-83.7
183.45,-83.7
183.475,-83.7
183.5,-83.7
183.525,-83.2
183.55,-83.2
183.575,-83.2
183.6,-83.2
183.625,-83.2
183.65,-83.2
183.675,-81.1
183.7,-81.1
183.725,-81.1
183.75,-81.1
183.775,-81.1
183.8,-81.1
183.825,-81.1
183.85,-80.4
183.875,-80.4
183.9,-80.4
183.925,-80.4
183.95,-80.4
183.975,-80.4
184.0,-80.4
184.0,-91.5
184.025,-92.8
184.05,-89.6
184.075,-91.4
184.1,-90.5
184.125,-92.8
184.15,-91.2
184.175,-89.7
184.2,-91.6
184.225,-90.1
184.25,-90.2
184.275,-90.1
184.3,-89.0
184.325,-87.9
184.35,-89.8
184.375,-89.8
184.4,-91.6
184.425,-92.5
184.45,-91.3
184.475,-89.8
184.5,-90.6
184.525,-91.2
184.55,-91.1
184.575,-91.2
184.6,-92.8
184.625,-92.4
184.65,-91.3
184.675,-91.7
184.7,-92.4
184.725,-91.8
184.75,-88.5
184.775,-89.6
184.8,-90.8
184.825,-93.3
184.85,-92.2
184.875,-91.3
184.9,-92.6
184.925,-91.5
184.95,-90.3
184.975,-89.8
185.0,-90.3
185.025,-90.9
185.05,-89.8
185.075,-91.9
185.1,-92.4
185.125,-91.8
185.15,-93.3
185.175,-94.0
185.2,-92.9
185.225,-92.8
185.25,-93.6
185.275,-93.3
185.3,-93.6
185.325,-94.3
185.35,-90.9
185.375,-91.6
185.4,-93.5
185.425,-92.7
185.45,-93.3
185.475,-92.2
185.5,-92.7
185.525,-93.1
185.55,-92.5
185.575,-94.4
185.6,-92.5
185.625,-91.8
185.65,-91.6
185.675,-91.0
185.7,-91.6
185.725,-89.8
185.75,-90.2
185.775,-91.0
185.8,-90.8
185.825,-89.3
185.85,-88.2
185.875,-87.6
185.9,-88.2
185.925,-89.2
185.95,-89.7
185.975,-90.8
186.0,-91.2
186.025,-91.3
186.05,-91.2
186.075,-92.9
186.1,-91.6
186.125,-92.0
186.15,-91.3
186.175,-91.7
186.2,-89.6
186.225,-90.9
186.25,-89.7
186.275,-91.3
186.3,-91.9
186.325,-90.0
186.35,-91.7
186.375,-90.4
186.4,-89.2
186.425,-89.5
186.45,-90.5
186.475,-89.3
186.5,-89.7
186.525,-92.3
186.55,-91.6
186.575,-90.0
186.6,-92.4
186.625,-90.1
186.65,-92.6
186.675,-92.2
186.7,-91.7
186.725,-92.4
186.75,-89.9
186.775,-93.5
186.8,-92.2
186.825,-93.1
186.85,-90.9
186.875,-91.8
186.9,-90.8
186.925,-91.6
186.95,-92.6
186.975,-91.7
187.0,-89.2
187.025,-91.5
187.05,-90.0
187.075,-89.9
187.1,-90.6
187.125,-89.5
187.15,-90.5
187.175,-90.8
187.2,-89.5
187.225,-89.9
187.25,-90.7
187.275,-91.3
187.3,-89.5
187.325,-89.2
187.35,-92.1
187.375,-90.8
187.4,-90.5
187.425,-90.4
187.45,-92.2
187.475,-90.7
187.5,-91.3
187.525,-92.3
187.55,-91.3
187.575,-92.8
187.6,-94.6
187.625,-93.9
187.65,-92.5
187.675,-92.8
187.7,-91.1
187.725,-92.9
187.75,-91.9
187.775,-92.6
187.8,-91.3
187.825,-93.1
187.85,-90.2
187.875,-92.0
187.9,-90.0
187.925,-92.2
187.95,-92.1
187.975,-92.0
188.0,-93.9
188.025,-94.2
188.05,-94.7
188.075,-91.5
188.1,-94.1
188.125,-93.3
188.15,-93.7
188.175,-94.2
188.2,-93.3
188.225,-94.2
188.25,-92.6
188.275,-93.1
188.3,-93.5
188.325,-95.0
188.35,-92.3
188.375,-91.8
188.4,-94.2
188.425,-94.1
188.45,-93.5
188.475,-93.2
188.5,-91.7
188.525,-91.6
188.55,-89.9
188.575,-90.5
188.6,-90.5
188.625,-91.4
188.65,-90.9
188.675,-89.0
188.7,-91.0
188.725,-89.0
188.75,-90.2
188.775,-91.5
188.8,-90.3
188.825,-91.6
188.85,-91.2
188.875,-89.4
188.9,-89.8
188.925,-89.5
188.95,-88.9
188.975,-88.8
189.0,-91.7
189.025,-92.3
189.05,-92.2
189.075,-92.5
189.1,-91.0
189.125,-92.6
189.15,-91.7
189.175,-90.5
189.2,-86.1
189.225,-90.7
189.25,-89.5
189.275,-89.9
189.3,-89.9
189.325,-89.3
189.35,-89.8
189.375,-90.4
189.4,-91.1
189.425,-90.7
189.45,-90.6
189.475,-88.3
189.5,-89.3
189.525,-89.8
189.55,-93.0
189.575,-91.4
189.6,-91.7
189.625,-90.7
189.65,-90.9
189.675,-88.9
189.7,-91.0
189.725,-90.8
189.75,-88.3
189.775,-92.3
189.8,-90.7
189.825,-90.1
189.85,-90.4
189.875,-89.4
189.9,-90.0
189.925,-90.3
189.95,-88.2
189.975,-89.0
190.0,-88.4
190.025,-86.8
190.05,-88.3
190.075,-86.3
190.1,-87.2
190.125,-89.4
190.15,-87.2
190.175,-86.9
190.2,-86.3
190.225,-85.7
190.25,-87.9
190.275,-87.3
190.3,-88.0
190.325,-86.6
190.35,-91.0
190.375,-90.6
190.4,-85.7
190.425,-90.4
190.45,-89.8
190.475,-89.3
190.5,-89.6
190.525,-90.8
190.55,-89.0
190.575,-90.0
190.6,-89.1
190.625,-88.5
190.65,-88.7
190.675,-88.8
190.7,-87.3
190.725,-88.0
190.75,-89.3
190.775,-88.3
190.8,-89.1
190.825,-89.8
190.85,-88.6
190.875,-89.8
190.9,-89.5
190.925,-90.0
190.95,-89.3
190.975,-90.7
191.0,-88.7
191.025,-87.5
191.05,-86.6
191.075,-88.2
191.1,-84.1
191.125,-87.9
191.15,-89.2
191.175,-86.4
191.2,-84.8
191.225,-85.9
191.25,-85.6
191.275,-87.2
191.3,-88.5
191.325,-89.4
191.35,-88.7
191.375,-86.9
191.4,-88.7
191.425,-87.1
191.45,-87.3
191.475,-86.9
191.5,-87.8
191.525,-87.6
191.55,-87.8
191.575,-88.3
191.6,-88.0
191.625,-89.5
191.65,-88.6
191.675,-86.4
191.7,-86.0
191.725,-88.4
191.75,-86.8
191.775,-84.6
191.8,-86.9
191.825,-88.5
191.85,-85.2
191.875,-86.2
191.9,-88.0
191.925,-86.0
191.95,-83.2
191.975,-80.9
192.0,-81.5
192.025,-82.5
192.05,-84.4
192.075,-84.9
192.1,-83.7
192.125,-84.6
192.15,-86.9
192.175,-85.0
192.2,-85.7
192.225,-84.5
192.25,-88.2
192.275,-73.8
192.3,-85.7
192.325,-84.1
192.35,-87.4
192.375,-85.7
192.4,-85.0
192.425,-85.4
192.45,-85.9
192.475,-84.4
192.5,-81.4
192.525,-84.9
192.55,-87.6
192.575,-85.9
192.6,-87.8
192.625,-86.5
192.65,-84.8
192.675,-88.0
192.7,-89.3
192.725,-88.9
192.75,-88.2
192.775,-88.6
192.8,-88.1
192.825,-85.1
192.85,-88.4
192.875,-86.2
192.9,-85.9
192.925,-84.8
192.95,-87.4
192.975,-89.5
193.0,-88.3
193.025,-87.9
193.05,-89.0
193.075,-88.3
193.1,-88.4
193.125,-87.4
193.15,-86.3
193.175,-86.9
193.2,-88.9
193.225,-90.4
193.25,-90.1
193.275,-89.8
193.3,-89.6
193.325,-90.5
193.35,-90.1
193.375,-86.9
193.4,-83.2
193.425,-91.7
193.45,-86.8
193.475,-86.8
193.5,-89.6
193.525,-88.3
193.55,-89.3
193.575,-89.5
193.6,-88.6
193.625,-89.0
193.65,-89.0
193.675,-90.6
193.7,-87.1
193.725,-90.1
193.75,-90.4
193.775,-90.4
193.8,-90.9
193.825,-92.7
193.85,-90.7
193.875,-90.7
193.9,-87.6
193.925,-90.1
193.95,-91.9
193.975,-92.3
194.0,-89.3
194.0,-90.3
194.025,-91.9
194.05,-90.1
194.075,-88.1
194.1,-89.2
194.125,-91.4
194.15,-91.1
194.175,-83.9
194.2,-87.0
194.225,-87.6
194.25,-87.2
194.275,-89.2
194.3,-89.6
194.325,-88.5
194.35,-90.1
194.375,-88.9
194.4,-90.2
194.425,-89.2
194.45,-92.1
194.475,-91.7
194.5,-91.3
194.525,-90.3
194.55,-90.5
194.575,-89.2
194.6,-90.7
194.625,-88.2
194.65,-88.4
194.675,-90.8
194.7,-90.5
194.725,-90.7
194.75,-86.6
194.775,-89.2
194.8,-90.0
194.825,-90.7
194.85,-90.1
194.875,-87.6
194.9,-88.2
194.925,-87.8
194.95,-86.3
194.975,-87.0
195.0,-87.9
195.025,-87.4
195.05,-85.6
195.075,-85.7
195.1,-87.2
195.125,-88.2
195.15,-89.4
195.175,-91.8
195.2,-89.4
195.225,-90.3
195.25,-88.3
195.275,-90.3
195.3,-91.5
195.325,-91.9
195.35,-91.3
195.375,-92.1
195.4,-92.4
195.425,-90.5
195.45,-92.4
195.475,-91.0
195.5,-90.7
195.525,-92.2
195.55,-93.1
195.575,-92.2
195.6,-91.2
195.625,-90.3
195.65,-89.1
195.675,-88.8
195.7,-88.5
195.725,-87.1
195.75,-85.1
195.775,-88.5
195.8,-89.7
195.825,-87.7
195.85,-89.6
195.875,-89.3
195.9,-90.6
195.925,-90.6
195.95,-89.7
195.975,-90.9
196.0,-93.0
196.025,-90.4
196.05,-92.5
196.075,-92.2
196.1,-93.1
196.125,-93.7
196.15,-90.8
196.175,-91.3
196.2,-92.4
196.225,-91.0
196.25,-92.3
196.275,-90.2
196.3,-89.5
196.325,-89.9
196.35,-90.2
196.375,-86.8
196.4,-87.3
196.425,-89.2
196.45,-87.2
196.475,-88.0
196.5,-88.4
196.525,-89.3
196.55,-88.4
196.575,-88.7
196.6,-87.1
196.625,-88.0
196.65,-88.4
196.675,-88.0
196.7,-88.3
196.725,-90.1
196.75,-89.0
196.775,-90.1
196.8,-90.2
196.825,-89.3
196.85,-89.1
196.875,-87.5
196.9,-89.3
196.925,-89.0
196.95,-89.0
196.975,-88.1
197.0,-87.5
197.025,-88.2
197.05,-88.0
197.075,-88.4
197.1,-90.5
197.125,-88.4
197.15,-87.8
197.175,-88.5
197.2,-88.2
197.225,-89.2
197.25,-89.3
197.275,-89.6
197.3,-90.3
197.325,-87.6
197.35,-88.6
197.375,-88.0
197.4,-85.7
197.425,-85.4
197.45,-87.5
197.475,-88.4
197.5,-87.5
197.525,-88.7
197.55,-87.7
197.575,-88.5
197.6,-89.4
197.625,-88.0
197.65,-87.9
197.675,-88.3
197.7,-88.4
197.725,-88.6
197.75,-89.0
197.775,-89.1
197.8,-87.7
197.825,-89.4
197.85,-87.7
197.875,-89.7
197.9,-89.2
197.925,-86.7
197.95,-86.9
197.975,-87.8
198.0,-85.9
198.025,-87.0
198.05,-86.0
198.075,-89.1
198.1,-88.4
198.125,-86.9
198.15,-85.1
198.175,-87.8
198.2,-89.1
198.225,-89.4
198.25,-88.1
198.275,-90.1
198.3,-91.6
198.325,-89.3
198.35,-89.0
198.375,-89.2
198.4,-89.7
198.425,-87.9
198.45,-89.9
198.475,-87.5
198.5,-88.5
198.525,-89.1
198.55,-86.5
198.575,-87.6
198.6,-88.6
198.625,-87.4
198.65,-87.7
198.675,-90.3
198.7,-91.5
198.725,-91.3
198.75,-91.7
198.775,-91.5
198.8,-91.3
198.825,-91.7
198.85,-92.0
198.875,-90.9
198.9,-91.9
198.925,-93.0
198.95,-94.0
198.975,-90.8
199.0,-89.4
199.025,-91.5
199.05,-92.2
199.075,-92.1
199.1,-88.7
199.125,-92.3
199.15,-92.6
199.175,-89.1
199.2,-89.5
199.225,-90.9
199.25,-92.0
199.275,-91.1
199.3,-89.9
199.325,-91.8
199.35,-91.1
199.375,-93.3
199.4,-93.5
199.425,-94.3
199.45,-92.3
199.475,-91.7
199.5,-92.5
199.525,-92.1
199.55,-91.8
199.575,-92.1
199.6,-93.4
199.625,-93.7
199.65,-93.3
199.675,-92.3
199.7,-93.4
199.725,-89.2
199.75,-93.0
199.775,-91.6
199.8,-90.8
199.825,-93.7
199.85,-90.6
199.875,-90.7
199.9,-92.2
199.925,-89.5
199.95,-89.2
199.975,-87.4
200.0,-86.7
200.025,-87.2
200.05,-88.8
200.075,-90.8
200.1,-93.0
200.125,-90.5
200.15,-93.2
200.175,-93.3
200.2,-92.0
200.225,-91.3
200.25,-93.8
200.275,-93.3
200.3,-93.5
200.325,-93.5
200.35,-94.0
200.375,-91.8
200.4,-91.1
200.425,-93.5
200.45,-92.3
200.475,-92.3
200.5,-93.5
200.525,-92.3
200.55,-91.9
200.575,-91.8
200.6,-92.3
200.625,-93.7
200.65,-93.3
200.675,-93.4
200.7,-91.3
200.725,-94.2
200.75,-91.8
200.775,-92.1
200.8,-93.0
200.825,-93.6
200.85,-94.6
200.875,-93.1
200.9,-92.4
200.925,-92.8
200.95,-93.2
200.975,-92.4
201.0,-92.1
201.025,-92.1
201.05,-93.5
201.075,-92.5
201.1,-93.7
201.125,-92.9
201.15,-91.8
201.175,-90.1
201.2,-90.2
201.225,-89.1
201.25,-90.1
201.275,-90.5
201.3,-89.6
201.325,-90.0
201.35,-89.7
201.375,-87.8
201.4,-87.8
201.425,-87.9
201.45,-88.0
201.475,-89.6
201.5,-87.8
201.525,-89.0
201.55,-88.5
201.575,-88.7
201.6,-89.7
201.625,-89.1
201.65,-90.3
201.675,-91.4
201.7,-90.3
201.725,-91.9
201.75,-91.5
201.775,-90.8
201.8,-90.5
201.825,-91.7
201.85,-92.1
201.875,-90.9
201.9,-90.9
201.925,-89.7
201.95,-90.7
201.975,-91.6
202.0,-90.1
202.025,-90.0
202.05,-92.2
202.075,-89.8
202.1,-91.5
202.125,-90.4
202.15,-91.0
202.175,-87.0
202.2,-90.3
202.225,-90.5
202.25,-91.2
202.275,-91.5
202.3,-89.3
202.325,-89.6
202.35,-90.1
202.375,-91.4
202.4,-91.2
202.425,-90.4
202.45,-90.0
202.475,-90.6
202.5,-90.7
202.525,-90.2
202.55,-89.2
202.575,-90.3
202.6,-89.7
202.625,-89.4
202.65,-88.8
202.675,-90.3
202.7,-88.5
202.725,-90.5
202.75,-89.6
202.775,-88.1
202.8,-89.1
202.825,-89.8
202.85,-89.5
202.875,-89.3
202.9,-89.1
202.925,-89.9
202.95,-88.5
202.975,-89.9
203.0,-87.1
203.025,-89.0
203.05,-88.6
203.075,-89.5
203.1,-88.5
203.125,-89.2
203.15,-90.8
203.175,-90.4
203.2,-90.5
203.225,-91.8
203.25,-90.2
203.275,-92.1
203.3,-92.4
203.325,-90.7
203.35,-91.7
203.375,-90.8
203.4,-90.5
203.425,-90.9
203.45,-90.9
203.475,-92.0
203.5,-90.8
203.525,-91.2
203.55,-91.5
203.575,-92.1
203.6,-89.6
203.625,-91.2
203.65,-91.8
203.675,-91.1
203.7,-93.2
203.725,-91.2
203.75,-90.5
203.775,-92.4
203.8,-92.0
203.825,-92.8
203.85,-92.1
203.875,-91.9
203.9,-91.4
203.925,-90.1
203.95,-90.4
203.975,-89.3
204.0,-88.2
204.0,-88.2
204.025,-90.2
204.05,-87.9
204.075,-88.7
204.1,-90.6
204.125,-89.5
204.15,-89.2
204.175,-90.2
204.2,-88.8
204.225,-89.1
204.25,-88.5
204.275,-88.6
204.3,-89.1
204.325,-89.1
204.35,-91.2
204.375,-91.7
204.4,-90.3
204.425,-91.7
204.45,-92.8
204.475,-91.7
204.5,-90.7
204.525,-93.1
204.55,-90.8
204.575,-92.2
204.6,-92.7
204.625,-91.4
204.65,-92.0
204.675,-92.3
204.7,-93.6
204.725,-92.1
204.75,-93.4
204.775,-93.5
204.8,-92.8
204.825,-93.4
204.85,-92.5
204.875,-94.1
204.9,-96.0
204.925,-91.0
204.95,-94.0
204.975,-92.3
205.0,-92.4
205.025,-91.4
205.05,-91.5
205.075,-91.0
205.1,-92.5
205.125,-93.3
205.15,-90.3
205.175,-92.4
205.2,-91.0
205.225,-88.2
205.25,-86.9
205.275,-84.5
205.3,-83.9
205.325,-83.1
205.35,-84.1
205.375,-84.3
205.4,-86.5
205.425,-88.3
205.45,-89.1
205.475,-89.8
205.5,-91.8
205.525,-92.3
205.55,-94.3
205.575,-94.0
205.6,-91.7
205.625,-91.3
205.65,-91.6
205.675,-91.2
205.7,-92.5
205.725,-92.8
205.75,-94.3
205.775,-94.8
205.8,-94.1
205.825,-94.7
205.85,-93.1
205.875,-92.5
205.9,-94.3
205.925,-93.7
205.95,-91.5
205.975,-92.8
206.0,-95.4
206.025,-96.8
206.05,-95.6
206.075,-96.5
206.1,-94.2
206.125,-94.4
206.15,-95.0
206.175,-94.7
206.2,-94.2
206.225,-93.6
206.25,-94.6
206.275,-95.8
206.3,-93.9
206.325,-95.2
206.35,-95.5
206.375,-95.1
206.4,-95.5
206.425,-94.2
206.45,-96.4
206.475,-95.5
206.5,-95.5
206.525,-96.9
206.55,-95.5
206.575,-94.3
206.6,-95.9
206.625,-96.0
206.65,-95.6
206.675,-94.2
206.7,-94.6
206.725,-95.5
206.75,-93.0
206.775,-93.6
206.8,-94.7
206.825,-94.3
206.85,-94.0
206.875,-94.5
206.9,-91.6
206.925,-92.6
206.95,-91.7
206.975,-92.6
207.0,-91.8
207.025,-92.0
207.05,-91.9
207.075,-89.8
207.1,-91.5
207.125,-92.1
207.15,-91.3
207.175,-91.7
207.2,-92.4
207.225,-91.6
207.25,-92.7
207.275,-93.1
207.3,-93.2
207.325,-92.2
207.35,-91.5
207.375,-91.5
207.4,-92.9
207.425,-92.5
207.45,-93.9
207.475,-94.5
207.5,-94.5
207.525,-94.4
207.55,-93.2
207.575,-94.3
207.6,-93.3
207.625,-94.7
207.65,-92.6
207.675,-92.4
207.7,-95.0
207.725,-94.1
207.75,-93.7
207.775,-92.4
207.8,-90.5
207.825,-93.8
207.85,-93.0
207.875,-95.0
207.9,-94.0
207.925,-93.2
207.95,-93.8
207.975,-92.6
208.0,-91.5
208.025,-93.2
208.05,-93.8
208.075,-94.3
208.1,-92.5
208.125,-92.4
208.15,-90.2
208.175,-92.5
208.2,-93.3
208.225,-92.4
208.25,-92.7
208.275,-92.3
208.3,-93.4
208.325,-93.1
208.35,-94.3
208.375,-93.1
208.4,-93.5
208.425,-93.7
208.45,-93.9
208.475,-95.2
208.5,-93.5
208.525,-93.7
208.55,-94.7
208.575,-95.6
208.6,-94.8
208.625,-95.1
208.65,-92.9
208.675,-94.8
208.7,-93.6
208.725,-95.4
208.75,-94.5
208.775,-93.9
208.8,-94.3
208.825,-94.7
208.85,-93.4
208.875,-93.9
208.9,-95.1
208.925,-94.7
208.95,-94.4
208.975,-94.6
209.0,-94.9
209.025,-95.0
209.05,-96.2
209.075,-95.3
209.1,-95.7
209.125,-95.7
209.15,-96.6
209.175,-95.7
209.2,-96.1
209.225,-94.6
209.25,-95.7
209.275,-95.1
209.3,-95.6
209.325,-94.2
209.35,-95.4
209.375,-96.0
209.4,-95.4
209.425,-95.1
209.45,-95.5
209.475,-95.3
209.5,-95.8
209.525,-96.2
209.55,-94.8
209.575,-96.4
209.6,-95.5
209.625,-95.1
209.65,-95.6
209.675,-92.9
209.7,-95.6
209.725,-95.1
209.75,-94.5
209.775,-94.0
209.8,-94.4
209.825,-93.8
209.85,-94.3
209.875,-95.1
209.9,-95.2
209.925,-96.0
209.95,-96.0
209.975,-95.6
210.0,-95.3
210.025,-94.5
210.05,-95.6
210.075,-97.3
210.1,-96.4
210.125,-95.8
210.15,-96.0
210.175,-97.7
210.2,-97.2
210.225,-95.0
210.25,-97.0
210.275,-95.5
210.3,-96.8
210.325,-95.7
210.35,-94.1
210.375,-93.4
210.4,-93.4
210.425,-92.8
210.45,-93.7
210.475,-93.7
210.5,-97.0
210.525,-97.3
210.55,-97.0
210.575,-96.0
210.6,-97.6
210.625,-96.0
210.65,-96.3
210.675,-96.3
210.7,-95.3
210.725,-94.8
210.75,-95.2
210.775,-95.3
210.8,-95.7
210.825,-96.3
210.85,-94.7
210.875,-95.9
210.9,-97.6
210.925,-97.4
210.95,-96.8
210.975,-96.7
211.0,-94.1
211.025,-97.9
211.05,-97.5
211.075,-96.6
211.1,-97.1
211.125,-97.4
211.15,-96.5
211.175,-96.5
211.2,-98.1
211.225,-96.5
211.25,-97.6
211.275,-95.6
211.3,-94.4
211.325,-96.1
211.35,-97.6
211.375,-98.0
211.4,-98.0
211.425,-97.1
211.45,-96.6
211.475,-96.1
211.5,-94.8
211.525,-98.0
211.55,-96.8
211.575,-97.6
211.6,-93.2
211.625,-97.8
211.65,-98.0
211.675,-99.0
211.7,-97.6
211.725,-97.4
211.75,-97.0
211.775,-97.1
211.8,-95.9
211.825,-96.9
211.85,-96.2
211.875,-97.6
211.9,-97.0
211.925,-97.3
211.95,-96.0
211.975,-97.8
212.0,-97.4
212.025,-95.0
212.05,-96.9
212.075,-97.1
212.1,-96.9
212.125,-94.1
212.15,-96.7
212.175,-96.7
212.2,-92.7
212.225,-92.0
212.25,-95.6
212.275,-95.2
212.3,-96.1
212.325,-97.0
212.35,-95.3
212.375,-96.9
212.4,-96.6
212.425,-97.1
212.45,-94.9
212.475,-97.6
212.5,-94.0
212.525,-96.1
212.55,-94.4
212.575,-94.4
212.6,-95.6
212.625,-94.9
212.65,-96.5
212.675,-97.0
212.7,-97.0
212.725,-95.7
212.75,-96.1
212.775,-96.3
212.8,-94.3
212.825,-97.5
212.85,-97.4
212.875,-95.1
212.9,-94.5
212.925,-95.4
212.95,-94.8
212.975,-95.9
213.0,-94.4
213.025,-93.8
213.05,-97.0
213.075,-95.6
213.1,-95.2
213.125,-97.3
213.15,-96.8
213.175,-96.0
213.2,-95.0
213.225,-96.0
213.25,-97.0
213.275,-96.1
213.3,-94.8
213.325,-97.4
213.35,-96.8
213.375,-94.9
213.4,-96.2
213.425,-95.6
213.45,-95.2
213.475,-95.4
213.5,-93.5
213.525,-94.3
213.55,-95.2
213.575,-96.2
213.6,-95.9
213.625,-95.7
213.65,-97.7
213.675,-97.1
213.7,-96.5
213.725,-95.7
213.75,-95.5
213.775,-94.9
213.8,-96.3
213.825,-96.4
213.85,-97.4
213.875,-94.6
213.9,-96.9
213.925,-96.5
213.95,-94.7
213.975,-97.0
214.0,-97.2
214.0,-102.3
214.025,-102.7
214.05,-102.9
214.075,-102.5
214.1,-102.7
214.125,-100.4
214.15,-100.4
214.175,-101.7
214.2,-103.7
214.225,-103.4
214.25,-101.6
214.275,-104.4
214.3,-100.8
214.325,-103.0
214.35,-102.6
214.375,-104.3
214.4,-103.6
214.425,-102.5
214.45,-103.5
214.475,-101.4
214.5,-99.4
214.525,-102.3
214.55,-104.7
214.575,-103.0
214.6,-100.2
214.625,-102.3
214.65,-102.7
214.675,-103.1
214.7,-101.3
214.725,-103.1
214.75,-98.1
214.775,-92.7
214.8,-100.7
214.825,-100.4
214.85,-101.4
214.875,-103.1
214.9,-102.5
214.925,-103.1
214.95,-103.5
214.975,-100.2
215.0,-100.0
215.025,-102.2
215.05,-103.5
215.075,-104.8
215.1,-102.1
215.125,-101.6
215.15,-101.7
215.175,-102.5
215.2,-102.7
215.225,-102.3
215.25,-100.6
215.275,-103.0
215.3,-102.4
215.325,-103.0
215.35,-100.0
215.375,-103.0
215.4,-105.7
215.425,-100.5
215.45,-100.5
215.475,-101.7
215.5,-97.2
215.525,-100.8
215.55,-98.0
215.575,-91.5
215.6,-93.7
215.625,-95.5
215.65,-99.8
215.675,-102.1
215.7,-102.4
215.725,-100.4
215.75,-101.6
215.775,-103.2
215.8,-101.0
215.825,-99.1
215.85,-102.7
215.875,-102.8
215.9,-103.2
215.925,-104.5
215.95,-99.8
215.975,-99.0
216.0,-96.5
216.025,-96.2
216.05,-102.8
216.075,-103.0
216.1,-103.1
216.125,-102.7
216.15,-102.9
216.175,-102.1
216.2,-104.2
216.225,-102.1
216.25,-102.7
216.275,-102.6
216.3,-102.8
216.325,-102.4
216.35,-102.9
216.375,-99.0
216.4,-102.2
216.425,-104.6
216.45,-102.0
216.475,-102.7
216.5,-103.0
216.525,-103.0
216.55,-99.5
216.575,-96.6
216.6,-99.8
216.625,-102.9
216.65,-102.0
216.675,-102.9
216.7,-102.8
216.725,-103.8
216.75,-100.5
216.775,-102.8
216.8,-104.5
216.825,-100.7
216.85,-101.9
216.875,-103.7
216.9,-102.2
216.925,-102.2
216.95,-103.1
216.975,-102.8
217.0,-102.4
217.025,-102.7
217.05,-102.3
217.075,-99.7
217.1,-103.3
217.125,-102.2
217.15,-103.4
217.175,-101.4
217.2,-102.4
217.225,-102.3
217.25,-101.2
217.275,-103.0
217.3,-102.7
217.325,-103.2
217.35,-102.9
217.375,-102.7
217.4,-102.1
217.425,-103.0
217.45,-103.4
217.475,-104.7
217.5,-99.9
217.525,-103.9
217.55,-103.2
217.575,-103.2
217.6,-100.9
217.625,-101.9
217.65,-103.5
217.675,-102.5
217.7,-103.0
217.725,-102.4
217.75,-103.1
217.775,-101.6
217.8,-103.3
217.825,-103.2
217.85,-103.8
217.875,-101.5
217.9,-100.5
217.925,-101.4
217.95,-101.6
217.975,-103.3
218.0,-102.0
400.0,-88.3
400.025,-88.3
400.05,-88.3
400.075,-88.3
400.1,-88.3
400.125,-88.3
400.15,-88.3
400.175,-88.3
400.2,-88.3
400.225,-88.3
400.25,-88.3
400.275,-88.3
400.3,-88.3
400.325,-88.3
400.35,-88.3
400.375,-88.3
400.4,-84.3
400.425,-84.3
400.45,-84.3
400.475,-84.3
400.5,-84.3
400.525,-84.3
400.55,-84.3
400.575,-84.3
400.6,-84.3
400.625,-84.3
400.65,-84.3
400.675,-84.3
400.7,-84.3
400.725,-84.3
400.75,-84.3
400.775,-84.3
400.8,-84.3
400.825,-88.3
400.85,-88.3
400.875,-88.3
400.9,-88.3
400.925,-88.3
400.95,-88.3
400.975,-88.3
401.0,-88.3
401.025,-88.3
401.05,-88.3
401.075,-88.3
401.1,-88.3
401.125,-88.3
401.15,-88.3
401.175,-88.3
401.2,-88.3
401.225,-88.3
401.25,-89.7
401.275,-89.7
401.3,-89.7
401.325,-89.7
401.35,-89.7
401.375,-89.7
401.4,-89.7
401.425,-89.7
401.45,-89.7
401.475,-89.7
401.5,-89.7
401.525,-89.7
401.55,-89.7
401.575,-89.7
401.6,-89.7
401.625,-89.7
401.65,-89.7
401.675,-90.2
401.7,-89.5
401.725,-89.5
401.75,-89.5
401.775,-89.5
401.8,-89.5
401.825,-89.5
401.85,-89.5
401.875,-89.5
401.9,-89.5
401.925,-89.5
401.95,-89.5
401.975,-89.5
402.0,-89.5
402.025,-89.5
402.05,-89.5
402.075,-88.8
402.1,-88.8
402.125,-88.8
402.15,-88.8
402.175,-88.8
402.2,-88.8
402.225,-88.8
402.25,-88.8
402.275,-88.8
402.3,-88.8
402.325,-88.8
402.35,-88.8
402.375,-88.8
402.4,-88.8
402.425,-88.8
402.45,-88.8
402.475,-88.8
402.5,-89.7
402.525,-89.7
402.55,-89.7
402.575,-89.7
402.6,-89.7
402.625,-89.7
402.65,-89.7
402.675,-89.7
402.7,-89.7
402.725,-89.7
402.75,-89.7
402.775,-89.7
402.8,-89.7
402.825,-89.7
402.85,-89.7
402.875,-89.7
402.9,-89.7
402.925,-89.5
402.95,-89.5
402.975,-89.5
403.0,-89.5
403.025,-89.5
403.05,-89.5
403.075,-89.5
403.1,-89.5
403.125,-89.5
403.15,-89.5
403.175,-89.5
403.2,-89.5
403.225,-89.5
403.25,-89.5
403.275,-89.5
403.3,-89.5
403.325,-89.5
403.35,-89.5
403.375,-89.5
403.4,-89.5
403.425,-89.5
403.45,-89.5
403.475,-89.5
403.5,-89.5
403.525,-89.5
403.55,-89.5
403.575,-89.5
403.6,-89.5
403.625,-89.5
403.65,-89.5
403.675,-89.5
403.7,-89.5
403.725,-89.5
403.75,-90.2
403.775,-90.2
403.8,-90.2
403.825,-90.2
403.85,-90.2
403.875,-90.2
403.9,-90.2
403.925,-90.2
403.95,-90.2
403.975,-90.2
404.0,-90.2
404.025,-90.2
404.05,-90.2
404.075,-90.2
404.1,-90.2
404.125,-90.2
404.15,-90.2
404.175,-90.1
404.2,-90.1
404.225,-90.1
404.25,-90.1
404.275,-90.1
404.3,-90.1
404.325,-90.1
404.35,-90.1
404.375,-90.1
404.4,-90.1
404.425,-90.1
404.45,-90.1
404.475,-90.1
404.5,-90.1
404.525,-90.1
404.55,-90.1
404.575,-90.8
404.6,-90.8
404.625,-90.8
404.65,-90.8
404.675,-90.8
404.7,-90.8
404.725,-90.8
404.75,-90.8
404.775,-90.8
404.8,-90.8
404.825,-90.8
404.85,-90.8
404.875,-90.8
404.9,-90.8
404.925,-90.8
404.95,-90.8
404.975,-90.8
405.0,-89.4
405.025,-89.4
405.05,-89.4
405.075,-89.4
405.1,-89.4
405.125,-89.4
405.15,-89.4
405.175,-89.4
405.2,-89.4
405.225,-89.4
405.25,-89.4
405.275,-89.4
405.3,-89.4
405.325,-89.4
405.35,-89.4
405.375,-89.4
405.4,-89.4
405.425,-89.4
405.45,-89.4
405.475,-89.4
405.5,-89.4
405.525,-89.4
405.55,-89.4
405.575,-89.4
405.6,-89.4
405.625,-89.4
405.65,-89.4
405.675,-89.4
405.7,-89.4
405.725,-89.4
405.75,-89.4
405.775,-89.4
405.8,-89.4
405.825,-89.4
405.85,-89.6
405.875,-89.6
405.9,-89.6
405.925,-89.6
405.95,-89.6
405.975,-89.6
406.0,-89.6
406.025,-89.6
406.05,-89.6
406.075,-89.6
406.1,-89.6
406.125,-89.6
406.15,-89.6
406.175,-89.6
406.2,-89.6
406.225,-89.6
406.25,-88.9
406.275,-88.9
406.3,-88.9
406.325,-88.9
406.35,-88.9
406.375,-88.9
406.4,-88.9
406.425,-88.9
406.45,-88.9
406.475,-88.9
406.5,-88.9
406.525,-88.9
406.55,-88.9
406.575,-88.9
406.6,-88.9
406.625,-88.9
406.65,-88.9
406.675,-89.5
406.7,-89.5
406.725,-89.5
406.75,-89.5
406.775,-89.5
406.8,-89.5
406.825,-89.5
406.85,-89.5
406.875,-89.5
406.9,-89.5
406.925,-89.5
406.95,-89.5
406.975,-89.5
407.0,-89.5
407.025,-89.5
407.05,-89.5
407.075,-89.5
407.1,-90.1
407.125,-90.1
407.15,-90.1
407.175,-90.1
407.2,-90.1
407.225,-90.1
407.25,-90.1
407.275,-90.1
407.3,-90.1
407.325,-90.1
407.35,-90.1
407.375,-90.1
407.4,-90.1
407.425,-90.1
407.45,-90.1
407.475,-90.1
407.5,-90.4
407.525,-90.4
407.55,-90.4
407.575,-90.4
407.6,-90.4
407.625,-90.4
407.65,-90.4
407.675,-90.4
407.7,-90.4
407.725,-90.4
407.75,-90.4
407.775,-90.4
407.8,-90.4
407.825,-90.4
407.85,-90.4
407.875,-90.4
407.9,-90.4
407.925,-90.6
407.95,-90.6
407.975,-90.6
408.0,-90.6
408.025,-90.6
408.05,-90.6
408.075,-90.6
408.1,-90.6
408.125,-90.6
408.15,-90.6
408.175,-90.6
408.2,-90.6
408.225,-90.6
408.25,-90.6
408.275,-90.6
408.3,-90.6
408.325,-90.6
408.35,-88.9
408.375,-88.9
408.4,-88.9
408.425,-88.9
408.45,-88.9
408.475,-88.9
408.5,-88.9
408.525,-88.9
408.55,-88.9
408.575,-88.9
408.6,-88.9
408.625,-88.9
408.65,-88.9
408.675,-88.9
408.7,-88.9
408.725,-88.9
408.75,-90.1
408.775,-90.1
408.8,-90.1
408.825,-90.1
408.85,-90.1
408.875,-90.1
408.9,-90.1
408.925,-90.1
408.95,-90.1
408.975,-90.1
409.0,-90.1
409.025,-90.1
409.05,-90.1
409.075,-90.1
409.1,-90.1
409.125,-90.1
409.15,-90.1
409.175,-88.6
409.2,-88.6
409.225,-88.6
409.25,-88.6
409.275,-88.6
409.3,-88.6
409.325,-88.6
409.35,-88.6
409.375,-88.6
409.4,-88.6
409.425,-88.6
409.45,-88.6
409.475,-88.6
409.5,-88.6
409.525,-88.6
409.55,-88.6
409.575,-88.6
409.6,-88.0
409.625,-88.0
409.65,-88.0
409.675,-88.0
409.7,-88.0
409.725,-88.0
409.75,-88.0
409.775,-88.0
409.8,-88.0
409.825,-88.0
409.85,-88.0
409.875,-88.0
409.9,-88.0
409.925,-88.0
409.95,-88.0
409.975,-88.0
410.0,-82.3
410.0,-97.4
410.025,-95.9
410.05,-97.7
410.075,-97.4
410.1,-95.2
410.125,-97.6
410.15,-95.6
410.175,-95.4
410.2,-92.6
410.225,-92.9
410.25,-94.2
410.275,-94.7
410.3,-93.8
410.325,-95.2
410.35,-92.3
410.375,-92.1
410.4,-93.1
410.425,-89.7
410.45,-91.9
410.475,-88.2
410.5,-86.1
410.525,-85.2
410.55,-83.3
410.575,-81.6
410.6,-79.9
410.625,-78.6
410.65,-77.6
410.675,-79.0
410.7,-80.3
410.725,-82.6
410.75,-84.9
410.775,-85.9
410.8,-89.0
410.825,-90.2
410.85,-90.0
410.875,-94.8
410.9,-95.8
410.925,-94.4
410.95,-92.5
410.975,-95.3
411.0,-94.3
411.025,-96.3
411.05,-97.6
411.075,-96.3
411.1,-98.4
411.125,-96.9
411.15,-95.8
411.175,-96.9
411.2,-98.0
411.225,-95.5
411.25,-96.3
411.275,-97.2
411.3,-98.0
411.325,-96.3
411.35,-95.2
411.375,-97.7
411.4,-96.0
411.425,-98.6
411.45,-99.6
411.475,-98.6
411.5,-96.2
411.525,-98.1
411.55,-98.3
411.575,-98.6
411.6,-99.5
411.625,-98.3
411.65,-99.2
411.675,-99.5
411.7,-95.2
411.725,-98.6
411.75,-98.3
411.775,-98.8
411.8,-96.8
411.825,-99.9
411.85,-98.0
411.875,-97.0
411.9,-97.1
411.925,-99.9
411.95,-97.5
411.975,-98.5
412.0,-97.9
412.025,-98.7
412.05,-98.2
412.075,-98.6
412.1,-98.7
412.125,-98.8
412.15,-97.5
412.175,-98.2
412.2,-98.4
412.225,-98.0
412.25,-99.1
412.275,-99.1
412.3,-99.2
412.325,-97.6
412.35,-98.2
412.375,-99.0
412.4,-97.6
412.425,-98.7
412.45,-99.5
412.475,-98.8
412.5,-98.4
412.525,-96.9
412.55,-98.2
412.575,-97.8
412.6,-96.1
412.625,-97.9
412.65,-98.7
412.675,-97.1
412.7,-98.3
412.725,-97.5
412.75,-98.7
412.775,-97.1
412.8,-93.1
412.825,-97.5
412.85,-95.4
412.875,-96.8
412.9,-97.4
412.925,-97.4
412.95,-96.7
412.975,-96.0
413.0,-96.5
413.025,-97.1
413.05,-98.1
413.075,-94.3
413.1,-96.6
413.125,-98.1
413.15,-97.7
413.175,-98.6
413.2,-98.8
413.225,-96.6
413.25,-99.2
413.275,-97.4
413.3,-97.3
413.325,-98.3
413.35,-99.0
413.375,-99.3
413.4,-98.1
413.425,-95.9
413.45,-97.3
413.475,-97.4
413.5,-97.8
413.525,-96.1
413.55,-97.2
413.575,-97.2
413.6,-97.0
413.625,-98.0
413.65,-99.0
413.675,-97.8
413.7,-96.9
413.725,-97.4
413.75,-98.1
413.775,-99.0
413.8,-98.7
413.825,-98.2
413.85,-97.2
413.875,-97.8
413.9,-97.6
413.925,-97.9
413.95,-94.7
413.975,-97.7
414.0,-97.2
414.025,-95.7
414.05,-97.5
414.075,-98.3
414.1,-98.2
414.125,-98.4
414.15,-97.9
414.175,-99.2
414.2,-99.2
414.225,-97.0
414.25,-98.7
414.275,-97.0
414.3,-97.6
414.325,-98.6
414.35,-99.0
414.375,-97.4
414.4,-99.1
414.425,-98.2
414.45,-99.4
414.475,-98.2
414.5,-98.9
414.525,-99.3
414.55,-99.3
414.575,-96.5
414.6,-97.8
414.625,-100.2
414.65,-99.3
414.675,-98.0
414.7,-99.2
414.725,-97.1
414.75,-97.6
414.775,-97.9
414.8,-99.4
414.825,-100.5
414.85,-98.4
414.875,-99.4
414.9,-99.1
414.925,-98.5
414.95,-98.1
414.975,-98.6
415.0,-97.9
415.025,-99.3
415.05,-98.6
415.075,-97.0
415.1,-98.4
415.125,-98.0
415.15,-96.7
415.175,-98.5
415.2,-97.3
415.225,-97.3
415.25,-97.5
415.275,-98.1
415.3,-96.6
415.325,-98.5
415.35,-98.8
415.375,-98.2
415.4,-98.4
415.425,-99.1
415.45,-97.4
415.475,-97.0
415.5,-96.3
415.525,-96.7
415.55,-97.9
415.575,-97.6
415.6,-98.0
415.625,-98.7
415.65,-96.0
415.675,-96.2
415.7,-95.1
415.725,-97.6
415.75,-100.2
415.775,-98.7
415.8,-98.1
415.825,-98.0
415.85,-98.4
415.875,-99.3
415.9,-99.6
415.925,-97.8
415.95,-97.6
415.975,-98.4
416.0,-99.5
416.025,-98.8
416.05,-99.4
416.075,-99.9
416.1,-99.7
416.125,-99.2
416.15,-100.3
416.175,-99.1
416.2,-97.2
416.225,-98.9
416.25,-99.6
416.275,-100.5
416.3,-99.5
416.325,-98.0
416.35,-99.0
416.375,-99.3
416.4,-99.3
416.425,-97.7
416.45,-99.2
416.475,-99.7
416.5,-99.6
416.525,-100.6
416.55,-98.0
416.575,-97.5
416.6,-97.7
416.625,-98.0
416.65,-97.2
416.675,-100.2
416.7,-99.4
416.725,-98.4
416.75,-99.7
416.775,-98.2
416.8,-98.4
416.825,-99.0
416.85,-98.8
416.875,-98.7
416.9,-100.1
416.925,-98.9
416.95,-98.2
416.975,-98.2
417.0,-97.3
417.025,-99.0
417.05,-98.9
417.075,-98.4
417.1,-98.5
417.125,-98.4
417.15,-98.7
417.175,-97.3
417.2,-99.0
417.225,-98.1
417.25,-99.1
417.275,-97.4
417.3,-99.8
417.325,-99.0
417.35,-96.3
417.375,-96.6
417.4,-98.2
417.425,-97.8
417.45,-97.2
417.475,-97.6
417.5,-97.6
417.525,-96.6
417.55,-97.9
417.575,-96.6
417.6,-97.2
417.625,-97.2
417.65,-95.5
417.675,-97.8
417.7,-99.3
417.725,-97.2
417.75,-97.7
417.775,-95.5
417.8,-96.4
417.825,-96.7
417.85,-97.5
417.875,-96.7
417.9,-96.0
417.925,-97.2
417.95,-97.8
417.975,-97.4
418.0,-95.6
418.025,-98.5
418.05,-97.4
418.075,-97.2
418.1,-98.6
418.125,-98.1
418.15,-99.0
418.175,-99.4
418.2,-99.2
418.225,-99.4
418.25,-98.6
418.275,-98.5
418.3,-96.5
418.325,-99.0
418.35,-100.0
418.375,-99.4
418.4,-98.8
418.425,-98.8
418.45,-98.7
418.475,-99.7
418.5,-99.4
418.525,-98.0
418.55,-99.6
418.575,-99.0
418.6,-98.8
418.625,-98.8
418.65,-98.3
418.675,-98.9
418.7,-99.3
418.725,-99.0
418.75,-100.0
418.775,-99.6
418.8,-99.9
418.825,-97.9
418.85,-99.3
418.875,-98.8
418.9,-99.7
418.925,-99.2
418.95,-100.4
418.975,-100.5
419.0,-97.9
419.025,-99.5
419.05,-99.6
419.075,-99.8
419.1,-99.2
419.125,-99.8
419.15,-97.9
419.175,-97.6
419.2,-99.5
419.225,-98.6
419.25,-98.5
419.275,-98.8
419.3,-98.7
419.325,-99.2
419.35,-99.5
419.375,-99.3
419.4,-98.2
419.425,-99.0
419.45,-99.7
419.475,-99.4
419.5,-99.1
419.525,-97.5
419.55,-99.8
419.575,-98.1
419.6,-98.8
419.625,-99.6
419.65,-99.2
419.675,-98.0
419.7,-99.6
419.725,-99.8
419.75,-98.6
419.775,-99.8
419.8,-100.0
419.825,-99.3
419.85,-98.9
419.875,-99.4
419.9,-100.6
419.925,-99.7
419.95,-99.0
419.975,-96.8
420.0,-97.8
420.0,-98.1
420.025,-96.3
420.05,-98.9
420.075,-98.0
420.1,-99.3
420.125,-97.9
420.15,-98.1
420.175,-98.7
420.2,-100.0
420.225,-99.3
420.25,-100.0
420.275,-100.5
420.3,-100.2
420.325,-99.4
420.35,-98.0
420.375,-98.3
420.4,-98.1
420.425,-99.9
420.45,-100.4
420.475,-100.3
420.5,-99.4
420.525,-99.5
420.55,-100.6
420.575,-98.4
420.6,-99.4
420.625,-99.2
420.65,-98.9
420.675,-99.1
420.7,-99.0
420.725,-97.8
420.75,-100.9
420.775,-98.5
420.8,-98.7
420.825,-99.3
420.85,-99.2
420.875,-99.0
420.9,-98.5
420.925,-99.4
420.95,-99.7
420.975,-100.4
421.0,-99.7
421.025,-99.2
421.05,-98.5
421.075,-100.0
421.1,-99.5
421.125,-98.0
421.15,-98.1
421.175,-97.1
421.2,-99.3
421.225,-99.5
421.25,-96.2
421.275,-94.0
421.3,-92.6
421.325,-91.1
421.35,-89.0
421.375,-89.5
421.4,-90.6
421.425,-92.3
421.45,-94.8
421.475,-96.5
421.5,-98.2
421.525,-97.4
421.55,-97.3
421.575,-98.9
421.6,-97.8
421.625,-96.7
421.65,-98.2
421.675,-98.2
421.7,-97.8
421.725,-97.6
421.75,-96.3
421.775,-97.4
421.8,-97.5
421.825,-98.6
421.85,-97.7
421.875,-98.3
421.9,-98.6
421.925,-98.5
421.95,-98.3
421.975,-98.3
422.0,-99.5
422.025,-98.0
422.05,-100.2
422.075,-99.2
422.1,-99.5
422.125,-97.3
422.15,-99.8
422.175,-100.5
422.2,-99.2
422.225,-97.6
422.25,-99.7
422.275,-99.4
422.3,-99.8
422.325,-98.3
422.35,-99.1
422.375,-99.6
422.4,-97.4
422.425,-98.5
422.45,-99.3
422.475,-98.2
422.5,-99.6
422.525,-98.5
422.55,-99.1
422.575,-98.7
422.6,-99.6
422.625,-98.7
422.65,-99.2
422.675,-97.7
422.7,-97.9
422.725,-100.2
422.75,-99.3
422.775,-100.3
422.8,-99.9
422.825,-99.3
422.85,-100.3
422.875,-99.3
422.9,-97.0
422.925,-98.9
422.95,-99.4
422.975,-99.6
423.0,-100.6
423.025,-98.3
423.05,-98.8
423.075,-99.1
423.1,-98.6
423.125,-98.8
423.15,-99.3
423.175,-97.2
423.2,-99.3
423.225,-99.8
423.25,-98.2
423.275,-99.2
423.3,-99.8
423.325,-99.1
423.35,-97.9
423.375,-98.9
423.4,-99.2
423.425,-99.3
423.45,-96.4
423.475,-100.8
423.5,-98.2
423.525,-99.8
423.55,-99.2
423.575,-99.1
423.6,-98.7
423.625,-98.3
423.65,-100.1
423.675,-99.8
423.7,-98.4
423.725,-99.5
423.75,-99.0
423.775,-99.7
423.8,-99.3
423.825,-99.6
423.85,-97.9
423.875,-100.3
423.9,-98.6
423.925,-97.3
423.95,-97.4
423.975,-98.4
424.0,-100.5
424.025,-100.6
424.05,-100.6
424.075,-97.6
424.1,-100.3
424.125,-98.8
424.15,-98.1
424.175,-100.0
424.2,-98.5
424.225,-99.9
424.25,-100.3
424.275,-99.9
424.3,-99.6
424.325,-99.9
424.35,-99.3
424.375,-98.8
424.4,-99.6
424.425,-97.9
424.45,-97.9
424.475,-98.8
424.5,-100.4
424.525,-99.5
424.55,-98.4
424.575,-98.8
424.6,-99.8
424.625,-98.8
424.65,-99.5
424.675,-99.4
424.7,-99.1
424.725,-99.9
424.75,-98.4
424.775,-100.1
424.8,-99.3
424.825,-98.6
424.85,-100.2
424.875,-98.9
424.9,-99.8
424.925,-99.0
424.95,-98.6
424.975,-99.4
425.0,-99.2
425.025,-98.7
425.05,-98.9
425.075,-99.8
425.1,-99.8
425.125,-99.4
425.15,-100.3
425.175,-99.1
425.2,-100.3
425.225,-99.2
425.25,-99.2
425.275,-98.9
425.3,-97.0
425.325,-98.7
425.35,-97.1
425.375,-99.6
425.4,-98.4
425.425,-98.3
425.45,-96.9
425.475,-96.8
425.5,-98.0
425.525,-97.1
425.55,-97.4
425.575,-98.2
425.6,-96.9
425.625,-97.2
425.65,-95.5
425.675,-96.6
425.7,-98.0
425.725,-96.4
425.75,-96.3
425.775,-95.9
425.8,-97.4
425.825,-98.2
425.85,-97.6
425.875,-98.6
425.9,-96.7
425.925,-98.3
425.95,-98.2
425.975,-99.2
426.0,-99.0
426.025,-99.5
426.05,-96.6
426.075,-98.9
426.1,-99.5
426.125,-98.4
426.15,-99.1
426.175,-98.2
426.2,-99.2
426.225,-98.4
426.25,-98.8
426.275,-99.7
426.3,-99.1
426.325,-97.9
426.35,-99.7
426.375,-100.0
426.4,-99.0
426.425,-98.8
426.45,-98.9
426.475,-99.5
426.5,-99.2
426.525,-99.3
426.55,-98.3
426.575,-98.0
426.6,-98.9
426.625,-100.8
426.65,-97.8
426.675,-99.2
426.7,-97.8
426.725,-98.8
426.75,-98.5
426.775,-99.8
426.8,-99.5
426.825,-97.2
426.85,-98.2
426.875,-99.6
426.9,-99.5
426.925,-99.3
426.95,-97.7
426.975,-99.5
427.0,-99.0
427.025,-98.9
427.05,-99.1
427.075,-98.5
427.1,-98.0
427.125,-99.5
427.15,-98.9
427.175,-98.8
427.2,-97.6
427.225,-98.6
427.25,-99.4
427.275,-98.1
427.3,-98.4
427.325,-99.3
427.35,-98.0
427.375,-99.8
427.4,-98.7
427.425,-98.2
427.45,-98.5
427.475,-99.7
427.5,-97.1
427.525,-98.9
427.55,-97.4
427.575,-97.8
427.6,-99.0
427.625,-98.2
427.65,-98.1
427.675,-98.3
427.7,-97.7
427.725,-99.5
427.75,-99.3
427.775,-98.8
427.8,-100.0
427.825,-98.9
427.85,-97.8
427.875,-99.4
427.9,-99.9
427.925,-98.8
427.95,-98.8
427.975,-98.2
428.0,-98.1
428.025,-99.5
428.05,-99.5
428.075,-98.0
428.1,-99.1
428.125,-97.9
428.15,-99.5
428.175,-100.6
428.2,-98.8
428.225,-98.8
428.25,-98.6
428.275,-98.6
428.3,-98.4
428.325,-99.1
428.35,-98.4
428.375,-97.5
428.4,-97.2
428.425,-98.8
428.45,-99.6
428.475,-100.1
428.5,-97.4
428.525,-95.6
428.55,-97.9
428.575,-94.4
428.6,-94.3
428.625,-98.7
428.65,-95.4
428.675,-96.0
428.7,-96.4
428.725,-94.9
428.75,-95.6
428.775,-99.0
428.8,-98.8
428.825,-99.0
428.85,-98.7
428.875,-98.7
428.9,-98.7
428.925,-99.7
428.95,-99.8
428.975,-99.2
429.0,-99.3
429.025,-98.0
429.05,-98.1
429.075,-98.8
429.1,-98.4
429.125,-98.3
429.15,-97.2
429.175,-99.8
429.2,-98.0
429.225,-98.5
429.25,-100.2
429.275,-98.2
429.3,-99.4
429.325,-99.2
429.35,-98.8
429.375,-99.2
429.4,-98.3
429.425,-98.0
429.45,-99.3
429.475,-96.8
429.5,-96.8
429.525,-97.8
429.55,-98.5
429.575,-96.3
429.6,-98.1
429.625,-97.5
429.65,-96.7
429.675,-98.1
429.7,-97.2
429.725,-97.2
429.75,-97.6
429.775,-96.0
429.8,-97.9
429.825,-97.9
429.85,-97.9
429.875,-97.0
429.9,-98.8
429.925,-98.7
429.95,-99.2
429.975,-98.6
430.0,-99.7
430.0,-97.9
430.025,-97.9
430.05,-98.9
430.075,-96.9
430.1,-95.4
430.125,-99.0
430.15,-97.0
430.175,-97.9
430.2,-98.1
430.225,-99.0
430.25,-98.6
430.275,-98.7
430.3,-99.7
430.325,-99.9
430.35,-99.0
430.375,-99.9
430.4,-99.1
430.425,-98.0
430.45,-98.9
430.475,-97.3
430.5,-99.1
430.525,-100.2
430.55,-99.0
430.575,-99.6
430.6,-98.7
430.625,-97.5
430.65,-99.1
430.675,-97.7
430.7,-100.7
430.725,-98.0
430.75,-99.6
430.775,-97.9
430.8,-98.9
430.825,-98.0
430.85,-99.5
430.875,-97.9
430.9,-98.5
430.925,-99.2
430.95,-98.7
430.975,-96.2
431.0,-98.9
431.025,-99.0
431.05,-99.4
431.075,-97.8
431.1,-97.7
431.125,-96.3
431.15,-96.5
431.175,-94.6
431.2,-96.9
431.225,-96.4
431.25,-97.5
431.275,-97.3
431.3,-97.0
431.325,-98.9
431.35,-98.9
431.375,-95.7
431.4,-99.2
431.425,-98.9
431.45,-98.8
431.475,-98.4
431.5,-99.3
431.525,-96.5
431.55,-99.2
431.575,-97.6
431.6,-98.6
431.625,-98.7
431.65,-98.1
431.675,-98.8
431.7,-100.3
431.725,-99.0
431.75,-98.8
431.775,-97.2
431.8,-98.6
431.825,-98.3
431.85,-99.6
431.875,-99.1
431.9,-98.0
431.925,-99.1
431.95,-100.3
431.975,-97.7
432.0,-98.0
432.025,-99.7
432.05,-99.5
432.075,-98.5
432.1,-99.9
432.125,-98.8
432.15,-97.6
432.175,-98.0
432.2,-98.2
432.225,-99.6
432.25,-98.9
432.275,-99.2
432.3,-99.6
432.325,-98.7
432.35,-97.9
432.375,-98.4
432.4,-97.4
432.425,-99.4
432.45,-98.7
432.475,-99.6
432.5,-98.9
432.525,-99.4
432.55,-99.0
432.575,-98.2
432.6,-96.4
432.625,-98.7
432.65,-99.7
432.675,-99.1
432.7,-97.8
432.725,-96.5
432.75,-99.3
432.775,-99.5
432.8,-99.2
432.825,-97.2
432.85,-99.1
432.875,-99.8
432.9,-98.1
432.925,-97.2
432.95,-99.4
432.975,-99.1
433.0,-99.7
433.025,-99.0
433.05,-97.8
433.075,-98.1
433.1,-96.8
433.125,-97.9
433.15,-96.6
433.175,-98.0
433.2,-99.7
433.225,-97.3
433.25,-99.1
433.275,-99.0
433.3,-97.4
433.325,-97.6
433.35,-97.0
433.375,-96.0
433.4,-95.8
433.425,-96.5
433.45,-95.6
433.475,-97.1
433.5,-98.5
433.525,-97.1
433.55,-96.3
433.575,-98.3
433.6,-98.4
433.625,-96.9
433.65,-96.6
433.675,-97.9
433.7,-95.4
433.725,-95.3
433.75,-96.5
433.775,-98.8
433.8,-97.2
433.825,-99.6
433.85,-98.0
433.875,-98.1
433.9,-98.7
433.925,-98.7
433.95,-98.8
433.975,-98.6
434.0,-98.5
434.025,-99.1
434.05,-98.2
434.075,-98.5
434.1,-98.1
434.125,-99.0
434.15,-99.0
434.175,-98.1
434.2,-99.7
434.225,-98.6
434.25,-98.7
434.275,-99.0
434.3,-96.3
434.325,-97.2
434.35,-95.2
434.375,-95.7
434.4,-96.6
434.425,-96.6
434.45,-97.4
434.475,-97.7
434.5,-99.0
434.525,-98.1
434.55,-99.8
434.575,-99.3
434.6,-99.5
434.625,-99.9
434.65,-98.7
434.675,-98.9
434.7,-97.3
434.725,-99.5
434.75,-100.1
434.775,-99.8
434.8,-99.7
434.825,-99.0
434.85,-99.7
434.875,-98.5
434.9,-99.8
434.925,-99.0
434.95,-99.2
434.975,-99.2
435.0,-97.8
435.025,-98.6
435.05,-97.1
435.075,-97.8
435.1,-98.7
435.125,-99.1
435.15,-99.0
435.175,-100.0
435.2,-99.1
435.225,-99.5
435.25,-98.4
435.275,-98.2
435.3,-99.6
435.325,-97.1
435.35,-98.9
435.375,-99.5
435.4,-99.1
435.425,-96.9
435.45,-98.6
435.475,-97.6
435.5,-99.0
435.525,-97.4
435.55,-97.8
435.575,-98.8
435.6,-98.3
435.625,-97.2
435.65,-97.6
435.675,-97.4
435.7,-97.5
435.725,-98.2
435.75,-96.0
435.775,-99.4
435.8,-97.5
435.825,-98.5
435.85,-98.0
435.875,-98.3
435.9,-96.8
435.925,-99.7
435.95,-98.7
435.975,-99.7
436.0,-98.9
436.025,-98.3
436.05,-99.4
436.075,-99.7
436.1,-97.7
436.125,-100.2
436.15,-98.6
436.175,-98.7
436.2,-99.1
436.225,-95.7
436.25,-98.2
436.275,-98.5
436.3,-99.1
436.325,-99.7
436.35,-97.7
436.375,-97.4
436.4,-98.2
436.425,-98.8
436.45,-100.1
436.475,-99.1
436.5,-99.4
436.525,-99.8
436.55,-98.8
436.575,-98.4
436.6,-98.3
436.625,-98.7
436.65,-100.2
436.675,-98.1
436.7,-98.6
436.725,-100.7
436.75,-96.6
436.775,-99.1
436.8,-99.0
436.825,-100.3
436.85,-100.0
436.875,-97.6
436.9,-98.1
436.925,-98.0
436.95,-99.1
436.975,-98.4
437.0,-99.5
437.025,-97.5
437.05,-98.1
437.075,-99.4
437.1,-98.7
437.125,-97.5
437.15,-99.3
437.175,-97.8
437.2,-97.4
437.225,-97.4
437.25,-98.3
437.275,-97.3
437.3,-98.2
437.325,-96.9
437.35,-98.0
437.375,-97.4
437.4,-97.1
437.425,-96.7
437.45,-97.1
437.475,-98.0
437.5,-97.6
437.525,-97.6
437.55,-96.4
437.575,-96.5
437.6,-97.6
437.625,-96.3
437.65,-96.9
437.675,-98.0
437.7,-96.9
437.725,-98.8
437.75,-97.8
437.775,-96.8
437.8,-97.6
437.825,-97.7
437.85,-99.9
437.875,-98.4
437.9,-97.2
437.925,-98.8
437.95,-99.1
437.975,-98.5
438.0,-97.5
438.025,-98.3
438.05,-98.8
438.075,-99.0
438.1,-98.5
438.125,-98.4
438.15,-99.0
438.175,-98.9
438.2,-100.4
438.225,-99.4
438.25,-97.6
438.275,-96.8
438.3,-99.4
438.325,-98.0
438.35,-97.8
438.375,-98.2
438.4,-99.3
438.425,-98.2
438.45,-99.2
438.475,-97.8
438.5,-97.0
438.525,-98.6
438.55,-98.2
438.575,-98.4
438.6,-100.1
438.625,-97.9
438.65,-98.0
438.675,-98.6
438.7,-98.7
438.725,-97.6
438.75,-99.8
438.775,-98.9
438.8,-98.0
438.825,-96.8
438.85,-98.2
438.875,-98.2
438.9,-97.5
438.925,-97.3
438.95,-100.0
438.975,-98.2
439.0,-99.7
439.025,-99.0
439.05,-97.6
439.075,-98.9
439.1,-96.5
439.125,-99.1
439.15,-99.1
439.175,-98.8
439.2,-98.8
439.225,-97.9
439.25,-99.4
439.275,-99.7
439.3,-97.8
439.325,-99.5
439.35,-99.2
439.375,-98.8
439.4,-98.8
439.425,-98.4
439.45,-98.2
439.475,-97.6
439.5,-98.3
439.525,-98.9
439.55,-98.3
439.575,-98.3
439.6,-97.3
439.625,-97.5
439.65,-98.9
439.675,-98.6
439.7,-98.1
439.725,-98.3
439.75,-98.0
439.775,-99.0
439.8,-100.7
439.825,-96.0
439.85,-98.9
439.875,-98.2
439.9,-97.6
439.925,-97.0
439.95,-95.3
439.975,-95.6
440.0,-96.7
