Frequency (MHz),Level (dBm)
54.0,-96.0
54.025,-96.0
54.05,-98.8
54.075,-98.8
54.1,-96.4
54.125,-96.4
54.15,-96.9
54.175,-98.0
54.2,-98.0
54.225,-97.4
54.25,-97.4
54.275,-97.0
54.3,-97.0
54.325,-98.2
54.35,-96.4
54.375,-96.4
54.4,-99.4
54.425,-99.4
54.45,-97.9
54.475,-97.9
54.5,-98.5
54.525,-98.8
54.55,-98.8
54.575,-98.4
54.6,-98.4
54.625,-98.6
54.65,-98.6
54.675,-99.1
54.7,-98.0
54.725,-98.0
54.75,-99.4
54.775,-99.4
54.8,-100.1
54.825,-100.1
54.85,-99.5
54.875,-99.3
54.9,-99.3
54.925,-98.7
54.95,-98.7
54.975,-98.6
55.0,-97.0
55.025,-97.0
55.05,-99.0
55.075,-99.0
55.1,-100.5
55.125,-100.5
55.15,-98.1
55.175,-99.9
55.2,-99.9
55.225,-99.8
55.25,-99.8
55.275,-97.2
55.3,-97.2
55.325,-98.6
55.35,-97.6
55.375,-97.6
55.4,-98.6
55.425,-98.6
55.45,-99.6
55.475,-99.6
55.5,-98.5
55.525,-96.9
55.55,-96.9
55.575,-99.6
55.6,-99.6
55.625,-99.6
55.65,-99.6
55.675,-98.3
55.7,-99.2
55.725,-99.2
55.75,-98.4
55.775,-98.4
55.8,-100.4
55.825,-100.4
55.85,-99.9
55.875,-97.7
55.9,-97.7
55.925,-98.9
55.95,-98.9
55.975,-100.1
56.0,-101.2
56.025,-101.2
56.05,-99.3
56.075,-99.3
56.1,-98.6
56.125,-98.6
56.15,-98.3
56.175,-100.1
56.2,-100.1
56.225,-98.9
56.25,-98.9
56.275,-99.0
56.3,-99.0
56.325,-98.5
56.35,-100.2
56.375,-100.2
56.4,-99.3
56.425,-99.3
56.45,-99.4
56.475,-99.4
56.5,-98.0
56.525,-98.3
56.55,-98.3
56.575,-100.6
56.6,-100.6
56.625,-100.3
56.65,-100.3
56.675,-99.1
56.7,-99.9
56.725,-99.9
56.75,-100.2
56.775,-100.2
56.8,-98.7
56.825,-98.7
56.85,-98.0
56.875,-98.9
56.9,-98.9
56.925,-99.1
56.95,-99.1
56.975,-99.6
57.0,-99.8
57.025,-99.8
57.05,-100.7
57.075,-100.7
57.1,-99.7
57.125,-99.7
57.15,-99.5
57.175,-100.7
57.2,-100.7
57.225,-97.7
57.25,-97.7
57.275,-98.6
57.3,-98.6
57.325,-99.7
57.35,-98.0
57.375,-98.0
57.4,-100.0
57.425,-100.0
57.45,-100.2
57.475,-100.2
57.5,-99.6
57.525,-100.4
57.55,-100.4
57.575,-100.5
57.6,-100.5
57.625,-98.4
57.65,-98.4
57.675,-99.0
57.7,-100.0
57.725,-100.0
57.75,-97.4
57.775,-97.4
57.8,-99.2
57.825,-99.2
57.85,-99.1
57.875,-100.5
57.9,-100.5
57.925,-97.0
57.95,-97.0
57.975,-100.6
58.0,-100.3
58.025,-100.3
58.05,-99.0
58.075,-99.0
58.1,-99.7
58.125,-99.7
58.15,-100.1
58.175,-98.8
58.2,-98.8
58.225,-97.1
58.25,-97.1
58.275,-99.6
58.3,-99.6
58.325,-99.2
58.35,-98.3
58.375,-98.3
58.4,-98.9
58.425,-98.9
58.45,-97.7
58.475,-97.7
58.5,-100.3
58.525,-98.2
58.55,-98.2
58.575,-99.3
58.6,-99.3
58.625,-97.7
58.65,-97.7
58.675,-99.5
58.7,-97.1
58.725,-97.1
58.75,-99.5
58.775,-99.5
58.8,-99.6
58.825,-99.6
58.85,-98.7
58.875,-98.6
58.9,-98.6
58.925,-99.9
58.95,-99.9
58.975,-99.2
59.0,-98.0
59.025,-98.0
59.05,-97.8
59.075,-97.8
59.1,-100.2
59.125,-100.2
59.15,-99.1
59.175,-98.4
59.2,-98.4
59.225,-98.2
59.25,-98.2
59.275,-98.9
59.3,-98.9
59.325,-98.5
59.35,-97.0
59.375,-97.0
59.4,-98.0
59.425,-98.0
59.45,-95.9
59.475,-95.9
59.5,-98.1
59.525,-98.0
59.55,-98.0
59.575,-98.5
59.6,-98.5
59.625,-97.5
59.65,-97.5
59.675,-98.1
59.7,-96.4
59.725,-96.4
59.75,-95.9
59.775,-95.9
59.8,-92.6
59.825,-92.6
59.85,-96.6
59.875,-93.7
59.9,-93.7
59.925,-97.0
59.95,-97.0
59.975,-95.4
60.0,-93.9
60.025,-93.9
60.05,-92.4
60.075,-92.4
60.1,-92.9
60.125,-92.9
60.15,-95.5
60.175,-93.8
60.2,-93.8
60.225,-95.4
60.25,-95.4
60.275,-96.8
60.3,-96.8
60.325,-98.2
60.35,-96.5
60.375,-96.5
60.4,-96.9
60.425,-96.9
60.45,-98.2
60.475,-98.2
60.5,-95.7
60.525,-97.1
60.55,-97.1
60.575,-96.2
60.6,-96.2
60.625,-95.8
60.65,-95.8
60.675,-96.6
60.7,-94.2
60.725,-94.2
60.75,-96.8
60.775,-96.8
60.8,-94.8
60.825,-94.8
60.85,-93.7
60.875,-93.9
60.9,-93.9
60.925,-94.5
60.95,-94.5
60.975,-93.7
61.0,-93.4
61.025,-93.4
61.05,-91.7
61.075,-91.7
61.1,-92.8
61.125,-92.8
61.15,-92.7
61.175,-93.0
61.2,-93.0
61.225,-91.8
61.25,-91.8
61.275,-92.3
61.3,-92.3
61.325,-92.7
61.35,-93.0
61.375,-93.0
61.4,-91.8
61.425,-91.8
61.45,-90.8
61.475,-90.8
61.5,-91.3
61.525,-92.3
61.55,-92.3
61.575,-91.9
61.6,-91.9
61.625,-90.2
61.65,-90.2
61.675,-92.2
61.7,-92.6
61.725,-92.6
61.75,-94.0
61.775,-94.0
61.8,-92.5
61.825,-92.5
61.85,-93.1
61.875,-93.3
61.9,-93.3
61.925,-93.9
61.95,-93.9
61.975,-92.4
62.0,-93.0
62.025,-93.0
62.05,-94.0
62.075,-94.0
62.1,-91.3
62.125,-91.3
62.15,-91.1
62.175,-91.9
62.2,-91.9
62.225,-92.4
62.25,-92.4
62.275,-91.0
62.3,-91.0
62.325,-91.3
62.35,-90.2
62.375,-90.2
62.4,-89.5
62.425,-89.5
62.45,-90.5
62.475,-90.5
62.5,-88.8
62.525,-88.9
62.55,-88.9
62.575,-88.4
62.6,-88.4
62.625,-88.4
62.65,-88.4
62.675,-89.2
62.7,-89.4
62.725,-89.4
62.75,-88.7
62.775,-88.7
62.8,-89.5
62.825,-89.5
62.85,-88.6
62.875,-89.8
62.9,-89.8
62.925,-87.8
62.95,-87.8
62.975,-89.7
63.0,-90.0
63.025,-90.0
63.05,-89.5
63.075,-89.5
63.1,-87.3
63.125,-87.3
63.15,-90.4
63.175,-90.2
63.2,-90.2
63.225,-90.4
63.25,-90.4
63.275,-90.1
63.3,-90.1
63.325,-90.2
63.35,-90.8
63.375,-90.8
63.4,-92.4
63.425,-92.4
63.45,-90.8
63.475,-90.8
63.5,-91.6
63.525,-92.4
63.55,-92.4
63.575,-91.0
63.6,-91.0
63.625,-88.7
63.65,-88.7
63.675,-91.4
63.7,-90.8
63.725,-90.8
63.75,-90.9
63.775,-90.9
63.8,-90.6
63.825,-90.6
63.85,-89.9
63.875,-90.1
63.9,-90.1
63.925,-90.0
63.95,-90.0
63.975,-89.5
64.0,-89.5
64.025,-89.5
64.05,-90.6
64.075,-90.6
64.1,-90.2
64.125,-90.2
64.15,-89.6
64.175,-90.1
64.2,-90.1
64.225,-90.4
64.25,-90.4
64.275,-89.7
64.3,-89.7
64.325,-90.3
64.35,-90.0
64.375,-90.0
64.4,-90.8
64.425,-90.8
64.45,-90.0
64.475,-90.0
64.5,-90.1
64.525,-90.0
64.55,-90.0
64.575,-90.2
64.6,-90.2
64.625,-90.7
64.65,-90.7
64.675,-90.2
64.7,-90.5
64.725,-90.5
64.75,-90.6
64.775,-90.6
64.8,-89.7
64.825,-89.7
64.85,-91.6
64.875,-91.3
64.9,-91.3
64.925,-91.4
64.95,-91.4
64.975,-92.3
65.0,-92.9
65.025,-92.9
65.05,-92.7
65.075,-92.7
65.1,-93.7
65.125,-93.7
65.15,-93.9
65.175,-93.5
65.2,-93.5
65.225,-91.9
65.25,-91.9
65.275,-92.7
65.3,-92.7
65.325,-91.7
65.35,-92.8
65.375,-92.8
65.4,-92.0
65.425,-92.0
65.45,-91.9
65.475,-91.9
65.5,-93.0
65.525,-92.3
65.55,-92.3
65.575,-90.2
65.6,-90.2
65.625,-91.1
65.65,-91.1
65.675,-91.7
65.7,-91.0
65.725,-91.0
65.75,-92.4
65.775,-92.4
65.8,-91.1
65.825,-91.1
65.85,-91.2
65.875,-91.3
65.9,-91.3
65.925,-91.2
65.95,-91.2
65.975,-91.4
66.0,-91.2
66.025,-91.2
66.05,-90.1
66.075,-90.1
66.1,-90.6
66.125,-90.6
66.15,-92.6
66.175,-92.5
66.2,-92.5
66.225,-93.0
66.25,-93.0
66.275,-92.6
66.3,-92.6
66.325,-93.2
66.35,-93.7
66.375,-93.7
66.4,-93.5
66.425,-93.5
66.45,-94.3
66.475,-94.3
66.5,-94.1
66.525,-94.1
66.55,-94.1
66.575,-93.7
66.6,-93.7
66.625,-92.6
66.65,-92.6
66.675,-93.4
66.7,-95.4
66.725,-95.4
66.75,-94.9
66.775,-94.9
66.8,-96.2
66.825,-96.2
66.85,-94.9
66.875,-93.5
66.9,-93.5
66.925,-94.1
66.95,-94.1
66.975,-93.8
67.0,-93.9
67.025,-93.9
67.05,-93.7
67.075,-93.7
67.1,-93.1
67.125,-93.1
67.15,-94.3
67.175,-93.6
67.2,-93.6
67.225,-94.3
67.25,-94.3
67.275,-94.0
67.3,-94.0
67.325,-93.6
67.35,-93.7
67.375,-93.7
67.4,-94.1
67.425,-94.1
67.45,-94.0
67.475,-94.0
67.5,-93.2
67.525,-94.0
67.55,-94.0
67.575,-95.0
67.6,-95.0
67.625,-94.3
67.65,-94.3
67.675,-93.3
67.7,-93.5
67.725,-93.5
67.75,-94.4
67.775,-94.4
67.8,-93.3
67.825,-93.3
67.85,-94.1
67.875,-95.0
67.9,-95.0
67.925,-94.9
67.95,-94.9
67.975,-95.3
68.0,-94.6
68.025,-94.6
68.05,-96.4
68.075,-96.4
68.1,-95.1
68.125,-95.1
68.15,-95.9
68.175,-95.9
68.2,-95.9
68.225,-95.9
68.25,-95.9
68.275,-96.5
68.3,-96.5
68.325,-96.5
68.35,-95.1
68.375,-95.1
68.4,-95.7
68.425,-95.7
68.45,-96.9
68.475,-96.9
68.5,-95.8
68.525,-94.5
68.55,-94.5
68.575,-95.4
68.6,-95.4
68.625,-93.4
68.65,-93.4
68.675,-94.2
68.7,-93.3
68.725,-93.3
68.75,-94.9
68.775,-94.9
68.8,-95.1
68.825,-95.1
68.85,-95.2
68.875,-94.9
68.9,-94.9
68.925,-94.1
68.95,-94.1
68.975,-94.5
69.0,-95.1
69.025,-95.1
69.05,-95.8
69.075,-95.8
69.1,-95.5
69.125,-95.5
69.15,-95.5
69.175,-94.9
69.2,-94.9
69.225,-94.8
69.25,-94.8
69.275,-95.0
69.3,-95.0
69.325,-95.2
69.35,-95.7
69.375,-95.7
69.4,-94.8
69.425,-94.8
69.45,-96.3
69.475,-96.3
69.5,-96.1
69.525,-96.4
69.55,-96.4
69.575,-96.1
69.6,-96.1
69.625,-94.7
69.65,-94.7
69.675,-95.9
69.7,-94.9
69.725,-94.9
69.75,-96.3
69.775,-96.3
69.8,-97.2
69.825,-97.2
69.85,-96.9
69.875,-97.5
69.9,-97.5
69.925,-96.6
69.95,-96.6
69.975,-95.7
70.0,-96.2
70.025,-96.2
70.05,-96.1
70.075,-96.1
70.1,-95.5
70.125,-95.5
70.15,-95.1
70.175,-96.6
70.2,-96.6
70.225,-94.9
70.25,-94.9
70.275,-95.8
70.3,-95.8
70.325,-95.5
70.35,-96.0
70.375,-96.0
70.4,-95.7
70.425,-95.7
70.45,-95.5
70.475,-95.5
70.5,-95.2
70.525,-96.6
70.55,-96.6
70.575,-95.7
70.6,-95.7
70.625,-95.4
70.65,-95.4
70.675,-97.1
70.7,-96.8
70.725,-96.8
70.75,-96.6
70.775,-96.6
70.8,-95.7
70.825,-95.7
70.85,-95.0
70.875,-95.0
70.9,-95.0
70.925,-96.2
70.95,-96.2
70.975,-96.2
71.0,-96.9
71.025,-96.9
71.05,-95.0
71.075,-95.0
71.1,-93.5
71.125,-93.5
71.15,-96.9
71.175,-97.1
71.2,-97.1
71.225,-97.6
71.25,-97.6
71.275,-97.3
71.3,-97.3
71.325,-96.8
71.35,-96.1
71.375,-96.1
71.4,-96.0
71.425,-96.0
71.45,-94.5
71.475,-94.5
71.5,-95.1
71.525,-96.6
71.55,-96.6
71.575,-95.3
71.6,-95.3
71.625,-93.6
71.65,-93.6
71.675,-95.5
71.7,-96.9
71.725,-96.9
71.75,-95.4
71.775,-95.4
71.8,-95.3
71.825,-95.3
71.85,-97.1
71.875,-94.8
71.9,-94.8
71.925,-94.6
71.95,-94.6
71.975,-94.5
72.0,-93.4
72.025,-93.4
72.05,-92.8
72.075,-92.8
72.1,-93.3
72.125,-93.3
72.15,-96.0
72.175,-96.3
72.2,-96.3
72.225,-92.8
72.25,-92.8
72.275,-94.0
72.3,-94.0
72.325,-94.4
72.35,-96.7
72.375,-96.7
72.4,-96.1
72.425,-96.1
72.45,-95.8
72.475,-95.8
72.5,-94.8
72.525,-94.6
72.55,-94.6
72.575,-96.5
72.6,-96.5
72.625,-95.5
72.65,-95.5
72.675,-97.0
72.7,-95.9
72.725,-95.9
72.75,-97.3
72.775,-97.3
72.8,-97.3
72.825,-97.3
72.85,-95.7
72.875,-96.8
72.9,-96.8
72.925,-96.4
72.95,-96.4
72.975,-96.5
73.0,-96.3
73.025,-96.3
73.05,-98.3
73.075,-98.3
73.1,-97.2
73.125,-97.2
73.15,-98.2
73.175,-97.6
73.2,-97.6
73.225,-98.0
73.25,-98.0
73.275,-96.7
73.3,-96.7
73.325,-97.9
73.35,-96.9
73.375,-96.9
73.4,-96.8
73.425,-96.8
73.45,-97.0
73.475,-97.0
73.5,-97.8
73.525,-97.2
73.55,-97.2
73.575,-96.5
73.6,-96.5
73.625,-98.5
73.65,-98.5
73.675,-98.0
73.7,-96.6
73.725,-96.6
73.75,-97.7
73.775,-97.7
73.8,-98.0
73.825,-98.0
73.85,-97.5
73.875,-97.4
73.9,-97.4
73.925,-98.7
73.95,-98.7
73.975,-97.5
74.0,-98.6
74.0,-91.9
74.025,-91.9
74.05,-91.1
74.075,-91.1
74.1,-89.8
74.125,-89.8
74.15,-89.6
74.175,-90.2
74.2,-90.2
74.225,-88.6
74.25,-88.6
74.275,-89.8
74.3,-89.8
74.325,-90.6
74.35,-91.0
74.375,-91.0
74.4,-91.9
74.425,-91.9
74.45,-91.4
74.475,-91.4
74.5,-91.6
74.525,-94.0
74.55,-94.0
74.575,-94.0
74.6,-94.0
74.625,-94.2
74.65,-94.2
74.675,-94.6
74.7,-93.2
74.725,-93.2
74.75,-94.1
74.775,-94.1
74.8,-95.2
74.825,-95.2
74.85,-93.9
74.875,-94.8
74.9,-94.8
74.925,-95.0
74.95,-95.0
74.975,-94.1
75.0,-94.4
75.025,-94.4
75.05,-96.4
75.075,-96.4
75.1,-93.7
75.125,-93.7
75.15,-93.7
75.175,-92.9
75.2,-92.9
75.225,-96.3
75.25,-96.3
75.275,-95.8
75.3,-95.8
75.325,-94.5
75.35,-94.0
75.375,-94.0
75.4,-95.2
75.425,-95.2
75.45,-94.1
75.475,-94.1
75.5,-96.2
75.525,-94.8
75.55,-94.8
75.575,-96.9
75.6,-96.9
75.625,-94.7
75.65,-94.7
75.675,-94.1
75.7,-94.1
75.725,-94.1
75.75,-95.6
75.775,-95.6
75.8,-94.4
75.825,-94.4
75.85,-93.7
75.875,-94.6
75.9,-94.6
75.925,-95.7
75.95,-95.7
75.975,-95.0
76.0,-94.4
76.025,-94.4
76.05,-93.6
76.075,-93.6
76.1,-94.3
76.125,-94.3
76.15,-96.6
76.175,-95.0
76.2,-95.0
76.225,-94.0
76.25,-94.0
76.275,-94.5
76.3,-94.5
76.325,-95.8
76.35,-97.4
76.375,-97.4
76.4,-95.3
76.425,-95.3
76.45,-93.0
76.475,-93.0
76.5,-94.9
76.525,-94.7
76.55,-94.7
76.575,-95.0
76.6,-95.0
76.625,-96.0
76.65,-96.0
76.675,-95.3
76.7,-96.4
76.725,-96.4
76.75,-95.7
76.775,-95.7
76.8,-95.4
76.825,-95.4
76.85,-96.2
76.875,-93.7
76.9,-93.7
76.925,-95.3
76.95,-95.3
76.975,-93.8
77.0,-94.6
77.025,-94.6
77.05,-94.3
77.075,-94.3
77.1,-95.4
77.125,-95.4
77.15,-95.0
77.175,-95.6
77.2,-95.6
77.225,-94.5
77.25,-94.5
77.275,-95.0
77.3,-95.0
77.325,-95.1
77.35,-95.9
77.375,-95.9
77.4,-95.8
77.425,-95.8
77.45,-95.0
77.475,-95.0
77.5,-90.9
77.525,-94.5
77.55,-94.5
77.575,-94.4
77.6,-94.4
77.625,-94.7
77.65,-94.7
77.675,-95.0
77.7,-95.3
77.725,-95.3
77.75,-95.0
77.775,-95.0
77.8,-93.8
77.825,-93.8
77.85,-96.0
77.875,-96.4
77.9,-96.4
77.925,-95.1
77.95,-95.1
77.975,-96.8
78.0,-93.1
78.025,-93.1
78.05,-94.7
78.075,-94.7
78.1,-94.1
78.125,-94.1
78.15,-94.6
78.175,-95.5
78.2,-95.5
78.225,-95.5
78.25,-95.5
78.275,-94.7
78.3,-94.7
78.325,-96.8
78.35,-95.7
78.375,-95.7
78.4,-95.4
78.425,-95.4
78.45,-93.3
78.475,-93.3
78.5,-93.5
78.525,-95.0
78.55,-95.0
78.575,-95.1
78.6,-95.1
78.625,-95.9
78.65,-95.9
78.675,-95.3
78.7,-95.9
78.725,-95.9
78.75,-96.2
78.775,-96.2
78.8,-95.0
78.825,-95.0
78.85,-96.7
78.875,-93.9
78.9,-93.9
78.925,-97.3
78.95,-97.3
78.975,-96.1
79.0,-93.3
79.025,-93.3
79.05,-93.5
79.075,-93.5
79.1,-96.1
79.125,-96.1
79.15,-96.1
79.175,-95.7
79.2,-95.7
79.225,-95.8
79.25,-95.8
79.275,-94.9
79.3,-94.9
79.325,-96.1
79.35,-97.0
79.375,-97.0
79.4,-95.2
79.425,-95.2
79.45,-95.5
79.475,-95.5
79.5,-95.1
79.525,-95.4
79.55,-95.4
79.575,-95.2
79.6,-95.2
79.625,-95.2
79.65,-95.2
79.675,-96.4
79.7,-94.4
79.725,-94.4
79.75,-95.0
79.775,-95.0
79.8,-94.9
79.825,-94.9
79.85,-94.7
79.875,-94.2
79.9,-94.2
79.925,-93.9
79.95,-93.9
79.975,-94.6
80.0,-92.8
80.025,-92.8
80.05,-91.8
80.075,-91.8
80.1,-94.2
80.125,-94.2
80.15,-95.6
80.175,-94.5
80.2,-94.5
80.225,-94.3
80.25,-94.3
80.275,-96.5
80.3,-96.5
80.325,-95.4
80.35,-94.5
80.375,-94.5
80.4,-96.4
80.425,-96.4
80.45,-94.5
80.475,-94.5
80.5,-95.3
80.525,-95.4
80.55,-95.4
80.575,-96.1
80.6,-96.1
80.625,-95.7
80.65,-95.7
80.675,-97.2
80.7,-95.0
80.725,-95.0
80.75,-97.1
80.775,-97.1
80.8,-96.2
80.825,-96.2
80.85,-96.5
80.875,-94.9
80.9,-94.9
80.925,-94.9
80.95,-94.9
80.975,-94.7
81.0,-95.4
81.025,-95.4
81.05,-96.1
81.075,-96.1
81.1,-94.9
81.125,-94.9
81.15,-93.7
81.175,-95.7
81.2,-95.7
81.225,-95.5
81.25,-95.5
81.275,-94.5
81.3,-94.5
81.325,-94.9
81.35,-94.3
81.375,-94.3
81.4,-95.5
81.425,-95.5
81.45,-95.5
81.475,-95.5
81.5,-95.8
81.525,-94.9
81.55,-94.9
81.575,-95.1
81.6,-95.1
81.625,-95.9
81.65,-95.9
81.675,-95.1
81.7,-94.6
81.725,-94.6
81.75,-93.8
81.775,-93.8
81.8,-94.8
81.825,-94.8
81.85,-94.8
81.875,-95.0
81.9,-95.0
81.925,-94.8
81.95,-94.8
81.975,-93.9
82.0,-93.7
82.025,-93.7
82.05,-96.4
82.075,-96.4
82.1,-95.4
82.125,-95.4
82.15,-95.0
82.175,-95.2
82.2,-95.2
82.225,-95.3
82.25,-95.3
82.275,-95.6
82.3,-95.6
82.325,-95.9
82.35,-93.8
82.375,-93.8
82.4,-95.0
82.425,-95.0
82.45,-94.1
82.475,-94.1
82.5,-94.1
82.525,-94.7
82.55,-94.7
82.575,-93.8
82.6,-93.8
82.625,-94.1
82.65,-94.1
82.675,-92.3
82.7,-93.5
82.725,-93.5
82.75,-93.1
82.775,-93.1
82.8,-94.3
82.825,-94.3
82.85,-95.0
82.875,-93.5
82.9,-93.5
82.925,-94.8
82.95,-94.8
82.975,-95.2
83.0,-93.2
83.025,-93.2
83.05,-95.4
83.075,-95.4
83.1,-94.8
83.125,-94.8
83.15,-94.4
83.175,-96.3
83.2,-96.3
83.225,-93.4
83.25,-93.4
83.275,-94.3
83.3,-94.3
83.325,-94.3
83.35,-95.4
83.375,-95.4
83.4,-94.1
83.425,-94.1
83.45,-95.3
83.475,-95.3
83.5,-92.6
83.525,-93.5
83.55,-93.5
83.575,-92.3
83.6,-92.3
83.625,-94.3
83.65,-94.3
83.675,-95.5
83.7,-94.0
83.725,-94.0
83.75,-93.0
83.775,-93.0
83.8,-93.5
83.825,-93.5
83.85,-92.9
83.875,-93.2
83.9,-93.2
83.925,-93.3
83.95,-93.3
83.975,-92.1
84.0,-92.1
84.025,-92.1
84.05,-91.0
84.075,-91.0
84.1,-93.2
84.125,-93.2
84.15,-94.7
84.175,-92.8
84.2,-92.8
84.225,-92.4
84.25,-92.4
84.275,-95.4
84.3,-95.4
84.325,-94.3
84.35,-94.7
84.375,-94.7
84.4,-94.7
84.425,-94.7
84.45,-95.7
84.475,-95.7
84.5,-94.1
84.525,-94.2
84.55,-94.2
84.575,-95.5
84.6,-95.5
84.625,-93.2
84.65,-93.2
84.675,-95.3
84.7,-95.2
84.725,-95.2
84.75,-93.4
84.775,-93.4
84.8,-95.4
84.825,-95.4
84.85,-94.1
84.875,-95.3
84.9,-95.3
84.925,-95.4
84.95,-95.4
84.975,-95.5
85.0,-95.6
85.025,-95.6
85.05,-93.1
85.075,-93.1
85.1,-93.7
85.125,-93.7
85.15,-94.1
85.175,-95.2
85.2,-95.2
85.225,-94.4
85.25,-94.4
85.275,-94.7
85.3,-94.7
85.325,-94.1
85.35,-94.5
85.375,-94.5
85.4,-94.0
85.425,-94.0
85.45,-95.0
85.475,-95.0
85.5,-92.9
85.525,-91.8
85.55,-91.8
85.575,-91.6
85.6,-91.6
85.625,-91.4
85.65,-91.4
85.675,-93.2
85.7,-89.8
85.725,-89.8
85.75,-93.3
85.775,-93.3
85.8,-93.7
85.825,-93.7
85.85,-93.3
85.875,-93.7
85.9,-93.7
85.925,-94.2
85.95,-94.2
85.975,-93.6
86.0,-93.0
86.025,-93.0
86.05,-94.6
86.075,-94.6
86.1,-93.3
86.125,-93.3
86.15,-94.9
86.175,-93.6
86.2,-93.6
86.225,-96.2
86.25,-96.2
86.275,-94.7
86.3,-94.7
86.325,-95.6
86.35,-95.3
86.375,-95.3
86.4,-94.6
86.425,-94.6
86.45,-94.3
86.475,-94.3
86.5,-95.3
86.525,-95.4
86.55,-95.4
86.575,-94.6
86.6,-94.6
86.625,-94.8
86.65,-94.8
86.675,-93.9
86.7,-94.5
86.725,-94.5
86.75,-92.5
86.775,-92.5
86.8,-94.5
86.825,-94.5
86.85,-94.4
86.875,-94.1
86.9,-94.1
86.925,-92.1
86.95,-92.1
86.975,-93.1
87.0,-93.5
87.025,-93.5
87.05,-90.3
87.075,-90.3
87.1,-93.4
87.125,-93.4
87.15,-93.1
87.175,-93.6
87.2,-93.6
87.225,-93.1
87.25,-93.1
87.275,-93.9
87.3,-93.9
87.325,-94.5
87.35,-94.6
87.375,-94.6
87.4,-93.4
87.425,-93.4
87.45,-92.8
87.475,-92.8
87.5,-92.9
87.525,-92.0
87.55,-92.0
87.575,-92.8
87.6,-92.8
87.625,-93.5
87.65,-93.5
87.675,-94.2
87.7,-93.2
87.725,-93.2
87.75,-91.6
87.775,-91.6
87.8,-92.0
87.825,-92.0
87.85,-92.4
87.875,-90.9
87.9,-90.9
87.925,-90.2
87.95,-90.2
87.975,-89.5
88.0,-91.6
88.025,-91.6
88.05,-90.9
88.075,-90.9
88.1,-90.1
88.125,-90.1
88.15,-92.4
88.175,-91.2
88.2,-91.2
88.225,-93.2
88.25,-93.2
88.275,-91.9
88.3,-91.9
88.325,-93.6
88.35,-92.7
88.375,-92.7
88.4,-92.8
88.425,-92.8
88.45,-90.2
88.475,-90.2
88.5,-92.9
88.525,-92.3
88.55,-92.3
88.575,-92.6
88.6,-92.6
88.625,-93.1
88.65,-93.1
88.675,-93.7
88.7,-94.9
88.725,-94.9
88.75,-93.5
88.775,-93.5
88.8,-93.9
88.825,-93.9
88.85,-92.8
88.875,-94.0
88.9,-94.0
88.925,-91.1
88.95,-91.1
88.975,-90.8
89.0,-93.8
89.025,-93.8
89.05,-93.7
89.075,-93.7
89.1,-94.1
89.125,-94.1
89.15,-92.6
89.175,-94.1
89.2,-94.1
89.225,-94.6
89.25,-94.6
89.275,-93.8
89.3,-93.8
89.325,-92.4
89.35,-95.1
89.375,-95.1
89.4,-94.2
89.425,-94.2
89.45,-94.3
89.475,-94.3
89.5,-94.7
89.525,-92.7
89.55,-92.7
89.575,-93.4
89.6,-93.4
89.625,-92.7
89.65,-92.7
89.675,-93.6
89.7,-94.4
89.725,-94.4
89.75,-94.0
89.775,-94.0
89.8,-94.3
89.825,-94.3
89.85,-92.4
89.875,-94.9
89.9,-94.9
89.925,-94.6
89.95,-94.6
89.975,-95.0
90.0,-95.0
90.025,-95.0
90.05,-94.2
90.075,-94.2
90.1,-93.9
90.125,-93.9
90.15,-93.7
90.175,-95.3
90.2,-95.3
90.225,-94.5
90.25,-94.5
90.275,-94.6
90.3,-94.6
90.325,-95.7
90.35,-93.5
90.375,-93.5
90.4,-92.9
90.425,-92.9
90.45,-94.5
90.475,-94.5
90.5,-94.6
90.525,-93.7
90.55,-93.7
90.575,-94.8
90.6,-94.8
90.625,-95.6
90.65,-95.6
90.675,-95.4
90.7,-94.9
90.725,-94.9
90.75,-94.5
90.775,-94.5
90.8,-94.0
90.825,-94.0
90.85,-95.1
90.875,-94.5
90.9,-94.5
90.925,-95.3
90.95,-95.3
90.975,-94.7
91.0,-93.6
91.025,-93.6
91.05,-94.7
91.075,-94.7
91.1,-94.2
91.125,-94.2
91.15,-94.3
91.175,-93.0
91.2,-93.0
91.225,-93.7
91.25,-93.7
91.275,-92.8
91.3,-92.8
91.325,-92.3
91.35,-92.6
91.375,-92.6
91.4,-92.4
91.425,-92.4
91.45,-92.8
91.475,-92.8
91.5,-93.6
91.525,-93.0
91.55,-93.0
91.575,-93.5
91.6,-93.5
91.625,-95.7
91.65,-95.7
91.675,-94.3
91.7,-95.1
91.725,-95.1
91.75,-93.5
91.775,-93.5
91.8,-94.5
91.825,-94.5
91.85,-95.2
91.875,-94.1
91.9,-94.1
91.925,-96.2
91.95,-96.2
91.975,-95.6
92.0,-95.9
92.025,-95.9
92.05,-94.9
92.075,-94.9
92.1,-96.1
92.125,-96.1
92.15,-95.6
92.175,-92.4
92.2,-92.4
92.225,-95.1
92.25,-95.1
92.275,-95.6
92.3,-95.6
92.325,-95.2
92.35,-96.0
92.375,-96.0
92.4,-93.5
92.425,-93.5
92.45,-94.3
92.475,-94.3
92.5,-95.1
92.525,-95.3
92.55,-95.3
92.575,-92.5
92.6,-92.5
92.625,-95.2
92.65,-95.2
92.675,-92.3
92.7,-94.9
92.725,-94.9
92.75,-94.5
92.775,-94.5
92.8,-92.6
92.825,-92.6
92.85,-93.4
92.875,-94.2
92.9,-94.2
92.925,-95.6
92.95,-95.6
92.975,-94.4
93.0,-94.0
93.025,-94.0
93.05,-95.4
93.075,-95.4
93.1,-95.2
93.125,-95.2
93.15,-95.5
93.175,-95.2
93.2,-95.2
93.225,-94.4
93.25,-94.4
93.275,-96.2
93.3,-96.2
93.325,-94.7
93.35,-93.6
93.375,-93.6
93.4,-95.6
93.425,-95.6
93.45,-93.7
93.475,-93.7
93.5,-94.8
93.525,-93.8
93.55,-93.8
93.575,-95.5
93.6,-95.5
93.625,-93.3
93.65,-93.3
93.675,-96.0
93.7,-94.7
93.725,-94.7
93.75,-95.0
93.775,-95.0
93.8,-94.3
93.825,-94.3
93.85,-95.1
93.875,-94.2
93.9,-94.2
93.925,-93.6
93.95,-93.6
93.975,-93.8
94.0,-95.2
94.0,-98.7
94.025,-98.7
94.05,-99.9
94.075,-98.5
94.1,-98.7
94.125,-98.7
94.15,-98.9
94.175,-98.7
94.2,-100.0
94.225,-100.0
94.25,-99.3
94.275,-99.0
94.3,-99.1
94.325,-99.1
94.35,-99.4
94.375,-97.0
94.4,-99.7
94.425,-97.4
94.45,-97.4
94.475,-99.5
94.5,-99.5
94.525,-99.8
94.55,-99.8
94.575,-99.7
94.6,-99.7
94.625,-98.6
94.65,-98.6
94.675,-99.5
94.7,-98.9
94.725,-98.0
94.75,-99.7
94.775,-99.7
94.8,-97.8
94.825,-93.7
94.85,-90.9
94.875,-90.9
94.9,-92.2
94.925,-91.8
94.95,-92.9
94.975,-92.9
95.0,-93.0
95.025,-96.0
95.05,-98.3
95.075,-98.3
95.1,-97.8
95.125,-99.5
95.15,-98.5
95.175,-97.6
95.2,-97.6
95.225,-100.4
95.25,-100.4
95.275,-99.8
95.3,-99.8
95.325,-99.8
95.35,-98.5
95.375,-98.1
95.4,-98.1
95.425,-99.7
95.45,-99.1
95.475,-99.7
95.5,-99.2
95.525,-99.2
95.55,-100.1
95.575,-99.8
95.6,-99.3
95.625,-99.3
95.65,-98.7
95.675,-98.0
95.7,-100.2
95.725,-100.2
95.75,-97.0
95.775,-97.1
95.8,-98.1
95.825,-98.1
95.85,-98.5
95.875,-96.1
95.9,-97.2
95.925,-97.6
95.95,-97.6
95.975,-97.0
96.0,-97.3
96.025,-97.9
96.05,-97.9
96.075,-98.6
96.1,-99.3
96.125,-99.0
96.15,-99.0
96.175,-98.4
96.2,-98.2
96.225,-99.0
96.25,-98.6
96.275,-98.6
96.3,-100.0
96.325,-99.0
96.35,-98.9
96.375,-98.9
96.4,-98.8
96.425,-98.9
96.45,-98.6
96.475,-98.6
96.5,-98.0
96.525,-99.2
96.55,-99.1
96.575,-99.1
96.6,-98.7
96.625,-99.2
96.65,-99.6
96.675,-98.6
96.7,-98.6
96.725,-99.2
96.75,-98.6
96.775,-99.8
96.8,-99.8
96.825,-100.5
96.85,-99.9
96.875,-99.0
96.9,-99.0
96.925,-99.7
96.95,-98.8
96.975,-98.3
97.0,-99.5
97.025,-99.5
97.05,-100.3
97.075,-99.5
97.1,-99.3
97.125,-99.3
97.15,-97.9
97.175,-100.6
97.2,-100.7
97.225,-100.7
97.25,-99.6
97.275,-98.5
97.3,-98.1
97.325,-98.1
97.35,-98.9
97.375,-99.3
97.4,-100.8
97.425,-99.2
97.45,-99.2
97.475,-100.1
97.5,-100.6
97.525,-99.7
97.55,-99.7
97.575,-98.0
97.6,-99.1
97.625,-97.8
97.65,-97.8
97.675,-99.6
97.7,-100.3
97.725,-99.5
97.75,-100.0
97.775,-100.0
97.8,-99.7
97.825,-98.4
97.85,-96.7
97.875,-96.7
97.9,-100.6
97.925,-99.4
97.95,-100.2
97.975,-100.2
98.0,-99.8
98.025,-99.4
98.05,-98.0
98.075,-98.0
98.1,-97.9
98.125,-96.2
98.15,-97.1
98.175,-99.9
98.2,-99.9
98.225,-100.3
98.25,-99.8
98.275,-97.9
98.3,-97.9
98.325,-99.9
98.35,-99.8
98.375,-100.0
98.4,-100.0
98.425,-99.6
98.45,-99.2
98.475,-99.6
98.5,-98.4
98.525,-98.4
98.55,-99.1
98.575,-99.1
98.6,-100.4
98.625,-100.4
98.65,-99.6
98.675,-99.2
98.7,-99.9
98.725,-99.9
98.75,-98.8
98.775,-98.5
98.8,-100.7
98.825,-100.7
98.85,-97.3
98.875,-97.8
98.9,-100.0
98.925,-100.2
98.95,-100.2
98.975,-99.9
99.0,-99.2
99.025,-98.4
99.05,-98.4
99.075,-98.7
99.1,-100.0
99.125,-98.6
99.15,-98.6
99.175,-100.2
99.2,-99.9
99.225,-97.6
99.25,-98.7
99.275,-98.7
99.3,-98.2
99.325,-100.1
99.35,-100.6
99.375,-100.6
99.4,-99.0
99.425,-99.3
99.45,-100.2
99.475,-100.2
99.5,-99.6
99.525,-100.4
99.55,-98.2
99.575,-98.2
99.6,-98.2
99.625,-98.5
99.65,-99.5
99.675,-99.2
99.7,-99.2
99.725,-97.4
99.75,-98.9
99.775,-97.0
99.8,-97.0
99.825,-99.2
99.85,-97.1
99.875,-96.9
99.9,-96.9
99.925,-98.8
99.95,-98.7
99.975,-96.4
100.0,-97.0
100.025,-97.0
100.05,-95.9
100.075,-98.0
100.1,-98.5
100.125,-98.5
100.15,-98.8
100.175,-98.4
100.2,-99.2
100.225,-99.2
100.25,-97.8
100.275,-98.7
100.3,-98.9
100.325,-98.9
100.35,-98.9
100.375,-98.1
100.4,-98.8
100.425,-98.7
100.45,-98.7
100.475,-99.2
100.5,-99.8
100.525,-98.1
100.55,-98.1
100.575,-99.1
100.6,-99.5
100.625,-98.2
100.65,-98.2
100.675,-98.7
100.7,-98.8
100.725,-97.0
100.75,-99.2
100.775,-99.2
100.8,-99.3
100.825,-100.3
100.85,-99.9
100.875,-99.9
100.9,-99.6
100.925,-97.6
100.95,-99.3
100.975,-99.3
101.0,-100.0
101.025,-99.3
101.05,-98.8
101.075,-98.8
101.1,-97.0
101.125,-98.0
101.15,-98.4
101.175,-100.0
101.2,-100.0
101.225,-98.9
101.25,-97.5
101.275,-97.3
101.3,-97.3
101.325,-96.8
101.35,-99.3
101.375,-98.8
101.4,-98.8
101.425,-99.1
101.45,-100.4
101.475,-98.9
101.5,-96.7
101.525,-96.7
101.55,-98.1
101.575,-97.9
101.6,-98.2
101.625,-98.2
101.65,-99.4
101.675,-99.3
101.7,-98.9
101.725,-98.9
101.75,-98.8
101.775,-99.6
101.8,-98.7
101.825,-98.7
101.85,-97.4
101.875,-98.1
101.9,-99.0
101.925,-97.2
101.95,-97.2
101.975,-100.3
102.0,-97.5
102.025,-99.2
102.05,-99.2
102.075,-97.2
102.1,-96.6
102.125,-95.7
102.15,-95.7
102.175,-98.5
102.2,-99.0
102.225,-98.6
102.25,-99.2
102.275,-99.2
102.3,-99.4
102.325,-98.2
102.35,-99.1
102.375,-99.1
102.4,-98.3
102.425,-100.3
102.45,-98.2
102.475,-98.2
102.5,-97.2
102.525,-98.7
102.55,-96.2
102.575,-96.2
102.6,-95.3
102.625,-96.7
102.65,-97.2
102.675,-95.7
102.7,-95.7
102.725,-98.8
102.75,-97.9
102.775,-97.7
102.8,-97.7
102.825,-97.8
102.85,-99.0
102.875,-99.1
102.9,-99.1
102.925,-97.3
102.95,-97.3
102.975,-97.7
103.0,-96.1
103.025,-96.1
103.05,-94.4
103.075,-94.6
103.1,-95.5
103.125,-95.5
103.15,-97.3
103.175,-98.7
103.2,-99.8
103.225,-99.8
103.25,-99.3
103.275,-98.9
103.3,-96.2
103.325,-96.2
103.35,-99.5
103.375,-97.7
103.4,-97.8
103.425,-97.4
103.45,-97.4
103.475,-99.7
103.5,-98.3
103.525,-98.6
103.55,-98.6
103.575,-98.5
103.6,-98.7
103.625,-98.0
103.65,-98.0
103.675,-99.5
103.7,-99.3
103.725,-98.1
103.75,-99.0
103.775,-99.0
103.8,-97.7
103.825,-99.4
103.85,-97.4
103.875,-97.4
103.9,-97.9
103.925,-96.4
103.95,-97.9
103.975,-97.9
104.0,-98.8
104.025,-97.1
104.05,-98.8
104.075,-98.8
104.1,-97.3
104.125,-98.4
104.15,-97.8
104.175,-99.2
104.2,-99.2
104.225,-96.9
104.25,-98.2
104.275,-96.9
104.3,-96.9
104.325,-98.2
104.35,-97.9
104.375,-98.2
104.4,-98.2
104.425,-96.5
104.45,-97.4
104.475,-96.9
104.5,-96.5
104.525,-96.5
104.55,-95.8
104.575,-98.4
104.6,-97.0
104.625,-97.0
104.65,-97.4
104.675,-97.8
104.7,-98.7
104.725,-98.7
104.75,-97.7
104.775,-97.9
104.8,-96.3
104.825,-96.3
104.85,-96.6
104.875,-98.2
104.9,-99.5
104.925,-97.9
104.95,-97.9
104.975,-97.3
105.0,-96.4
105.025,-97.0
105.05,-97.0
105.075,-98.1
105.1,-98.0
105.125,-97.9
105.15,-97.9
105.175,-98.3
105.2,-95.7
105.225,-99.2
105.25,-96.9
105.275,-96.9
105.3,-97.5
105.325,-97.9
105.35,-96.4
105.375,-96.4
105.4,-94.8
105.425,-94.9
105.45,-97.3
105.475,-97.3
105.5,-97.9
105.525,-98.6
105.55,-96.9
105.575,-96.9
105.6,-95.1
105.625,-95.6
105.65,-94.8
105.675,-98.0
105.7,-98.0
105.725,-97.2
105.75,-97.8
105.775,-97.2
105.8,-97.2
105.825,-99.4
105.85,-96.0
105.875,-95.4
105.9,-95.4
105.925,-95.6
105.95,-96.6
105.975,-95.8
106.0,-97.3
106.025,-97.3
106.05,-98.1
106.075,-96.9
106.1,-97.4
106.125,-97.4
106.15,-95.9
106.175,-98.8
106.2,-98.4
106.225,-98.4
106.25,-97.1
106.275,-97.3
106.3,-96.7
106.325,-96.7
106.35,-98.8
106.375,-96.7
106.4,-97.8
106.425,-98.4
106.45,-98.4
106.475,-98.1
106.5,-97.6
106.525,-96.9
106.55,-96.9
106.575,-97.9
106.6,-95.9
106.625,-96.9
106.65,-96.9
106.675,-96.1
106.7,-97.1
106.725,-98.2
106.75,-99.1
106.775,-99.1
106.8,-97.1
106.825,-98.3
106.85,-99.0
106.875,-99.0
106.9,-98.4
106.925,-98.1
106.95,-97.8
106.975,-97.8
107.0,-96.6
107.025,-98.9
107.05,-98.0
107.075,-98.0
107.1,-97.2
107.125,-95.8
107.15,-95.4
107.175,-96.7
107.2,-96.7
107.225,-97.3
107.25,-97.3
107.275,-98.4
107.3,-98.4
107.325,-98.2
107.35,-99.3
107.375,-98.6
107.4,-98.6
107.425,-97.9
107.45,-98.2
107.475,-98.4
107.5,-98.3
107.525,-98.3
107.55,-97.4
107.575,-97.8
107.6,-97.3
107.625,-97.3
107.65,-95.6
107.675,-97.5
107.7,-96.4
107.725,-96.4
107.75,-97.3
107.775,-97.2
107.8,-97.1
107.825,-97.1
107.85,-98.1
107.875,-97.7
107.9,-98.1
107.925,-98.5
107.95,-98.5
107.975,-97.8
108.0,-96.8
108.025,-98.1
108.05,-98.1
108.075,-96.9
108.1,-98.4
108.125,-98.1
108.15,-98.1
108.175,-96.6
108.2,-96.0
108.225,-97.2
108.25,-96.0
108.275,-96.0
108.3,-99.3
108.325,-97.7
108.35,-98.2
108.375,-98.2
108.4,-98.3
108.425,-98.0
108.45,-97.3
108.475,-97.3
108.5,-98.2
108.525,-99.2
108.55,-99.3
108.575,-99.3
108.6,-99.0
108.625,-97.7
108.65,-94.3
108.675,-92.1
108.7,-92.1
108.725,-91.4
108.75,-92.0
108.775,-94.5
108.8,-94.5
108.825,-96.9
108.85,-96.8
108.875,-99.3
108.9,-99.3
108.925,-96.8
108.95,-96.9
108.975,-98.2
109.0,-97.4
174.0,-84.1
174.025,-84.1
174.05,-84.6
174.075,-84.6
174.1,-84.6
174.125,-84.6
174.15,-84.6
174.175,-84.6
174.2,-84.6
174.225,-84.6
174.25,-84.5
174.275,-84.5
174.3,-84.5
174.325,-84.5
174.35,-84.5
174.375,-84.5
174.4,-84.5
174.425,-84.4
174.45,-84.4
174.475,-84.4
174.5,-84.4
174.525,-84.4
174.55,-84.4
174.575,-84.4
174.6,-84.2
174.625,-84.2
174.65,-84.2
174.675,-84.2
174.7,-84.2
174.725,-84.2
174.75,-84.2
174.775,-84.2
174.8,-84.6
174.825,-84.6
174.85,-84.6
174.875,-84.6
174.9,-84.6
174.925,-84.6
174.95,-84.6
174.975,-86.3
175.0,-86.3
175.025,-86.3
175.05,-86.3
175.075,-86.3
175.1,-86.3
175.125,-86.3
175.15,-86.3
175.175,-84.9
175.2,-84.9
175.225,-84.9
175.25,-84.9
175.275,-84.9
175.3,-84.9
175.325,-84.9
175.35,-84.6
175.375,-84.6
175.4,-84.6
175.425,-84.6
175.45,-84.6
175.475,-84.6
175.5,-84.6
175.525,-86.0
175.55,-86.0
175.575,-86.0
175.6,-86.0
175.625,-86.0
175.65,-86.0
175.675,-86.0
175.7,-86.0
175.725,-83.8
175.75,-83.8
175.775,-83.8
175.8,-83.8
175.825,-83.8
175.85,-83.8
175.875,-83.8
175.9,-83.8
175.925,-83.8
175.95,-83.8
175.975,-83.8
176.0,-83.8
176.025,-83.8
176.05,-83.8
176.075,-83.8
176.1,-84.2
176.125,-84.2
176.15,-84.2
176.175,-84.2
176.2,-84.2
176.225,-84.2
176.25,-84.2
176.275,-85.6
176.3,-85.6
176.325,-85.6
176.35,-85.6
176.375,-85.6
176.4,-85.6
176.425,-85.6
176.45,-85.0
176.475,-85.0
176.5,-85.0
176.525,-85.0
176.55,-85.0
176.575,-85.0
176.6,-85.0
176.625,-85.0
176.65,-83.3
176.675,-83.3
176.7,-83.3
176.725,-83.3
176.75,-83.3
176.775,-83.3
176.8,-83.3
176.825,-84.8
176.85,-84.8
176.875,-84.8
176.9,-84.8
176.925,-84.8
176.95,-84.8
176.975,-84.8
177.0,-83.7
177.025,-83.7
177.05,-83.7
177.075,-83.7
177.1,-83.7
177.125,-83.7
177.15,-83.7
177.175,-83.7
177.2,-83.2
177.225,-83.2
177.25,-83.2
177.275,-83.2
177.3,-83.2
177.325,-83.2
177.35,-83.2
177.375,-83.8
177.4,-83.8
177.425,-83.8
177.45,-83.8
177.475,-83.8
177.5,-83.8
177.525,-83.8
177.55,-83.8
177.575,-84.5
177.6,-84.5
177.625,-84.5
177.65,-84.5
177.675,-84.5
177.7,-84.5
177.725,-84.5
177.75,-82.3
177.775,-82.3
177.8,-82.3
177.825,-82.3
177.85,-82.3
177.875,-82.3
177.9,-82.3
177.925,-84.3
177.95,-84.3
177.975,-84.3
178.0,-84.3
178.025,-84.3
178.05,-84.3
178.075,-84.3
178.1,-84.3
178.125,-81.3
178.15,-81.3
178.175,-81.3
178.2,-81.3
178.225,-81.3
178.25,-81.3
178.275,-81.3
178.3,-83.0
178.325,-83.0
178.35,-83.0
178.375,-83.0
178.4,-83.0
178.425,-83.0
178.45,-83.0
178.475,-83.0
178.5,-82.4
178.525,-82.4
178.55,-82.4
178.575,-82.4
178.6,-82.4
178.625,-82.4
178.65,-82.4
178.675,-82.2
178.7,-82.2
178.725,-82.2
178.75,-82.2
178.775,-82.2
178.8,-82.2
178.825,-82.2
178.85,-82.7
178.875,-82.7
178.9,-82.7
178.925,-82.7
178.95,-82.7
178.975,-82.7
179.0,-82.7
179.025,-82.7
179.05,-81.7
179.075,-81.7
179.1,-81.7
179.125,-81.7
179.15,-81.7
179.175,-81.7
179.2,-81.7
179.225,-82.3
179.25,-82.3
179.275,-82.3
179.3,-82.3
179.325,-82.3
179.35,-82.3
179.375,-82.3
179.4,-82.3
179.425,-81.3
179.45,-81.3
179.475,-81.3
179.5,-81.3
179.525,-81.3
179.55,-81.3
179.575,-81.3
179.6,-82.2
179.625,-82.2
179.65,-82.2
179.675,-82.2
179.7,-82.2
179.725,-82.2
179.75,-82.2
179.775,-81.2
179.8,-81.2
179.825,-81.2
179.85,-81.2
179.875,-81.2
179.9,-81.2
179.925,-81.2
179.95,-81.2
179.975,-80.4
180.0,-80.4
180.025,-80.4
180.05,-80.4
180.075,-80.4
180.1,-80.4
180.125,-80.4
180.15,-81.8
180.175,-81.8
180.2,-81.8
180.225,-81.8
180.25,-81.8
180.275,-81.8
180.3,-81.8
180.325,-81.8
180.35,-81.6
180.375,-81.6
180.4,-81.6
180.425,-81.6
180.45,-81.6
180.475,-81.6
180.5,-81.6
180.525,-82.5
180.55,-82.5
180.575,-82.5
180.6,-82.5
180.625,-82.5
180.65,-82.5
180.675,-82.5
180.7,-82.7
180.725,-82.7
180.75,-82.7
180.775,-82.7
180.8,-82.7
180.825,-82.7
180.85,-82.7
180.875,-82.7
180.9,-83.9
180.925,-83.9
180.95,-83.9
180.975,-83.9
181.0,-83.9
181.025,-83.9
181.05,-83.9
181.075,-79.8
181.1,-79.8
181.125,-79.8
181.15,-79.8
181.175,-79.8
181.2,-79.8
181.225,-79.8
181.25,-82.2
181.275,-82.2
181.3,-82.2
181.325,-82.2
181.35,-82.2
181.375,-82.2
181.4,-82.2
181.425,-82.2
181.45,-82.2
181.475,-82.2
181.5,-82.2
181.525,-82.2
181.55,-82.2
181.575,-82.2
181.6,-82.2
181.625,-81.8
181.65,-81.8
181.675,-81.8
181.7,-81.8
181.725,-81.8
181.75,-81.8
181.775,-81.8
181.8,-81.8
181.825,-83.0
181.85,-83.0
181.875,-83.0
181.9,-83.0
181.925,-83.0
181.95,-83.0
181.975,-83.0
182.0,-81.1
182.025,-81.1
182.05,-81.1
182.075,-81.1
182.1,-81.1
182.125,-81.1
182.15,-81.1
182.175,-82.7
182.2,-82.7
182.225,-82.7
182.25,-82.7
182.275,-82.7
182.3,-82.7
182.325,-82.7
182.35,-82.7
182.375,-81.4
182.4,-81.4
182.425,-81.4
182.45,-81.4
182.475,-81.4
182.5,-81.4
182.525,-81.4
182.55,-80.5
182.575,-80.5
182.6,-80.5
182.625,-80.5
182.65,-80.5
182.675,-80.5
182.7,-80.5
182.725,-80.5
182.75,-81.7
182.775,-81.7
182.8,-81.7
182.825,-81.7
182.85,-81.7
182.875,-81.7
182.9,-81.7
182.925,-79.2
182.95,-79.2
182.975,-79.2
183.0,-79.2
183.025,-79.2
183.05,-79.2
183.075,-79.2
183.1,-81.7
183.125,-81.7
183.15,-81.7
183.175,-81.7
183.2,-81.7
183.225,-81.7
183.25,-81.7
183.275,-81.7
183.3,-81.1
183.325,-81.1
183.35,-81.1
183.375,-81.1
183.4,-81.1
183.425,-81.1
183.45,-81.1
183.475,-81.4
183.5,-81.4
183.525,-81.4
183.55,-81.4
183.575,-81.4
183.6,-81.4
183.625,-81.4
183.65,-81.4
183.675,-82.0
183.7,-82.0
183.725,-82.0
183.75,-82.0
183.775,-82.0
183.8,-82.0
183.825,-82.0
183.85,-81.6
183.875,-81.6
183.9,-81.6
183.925,-81.6
183.95,-81.6
183.975,-81.6
184.0,-81.6
184.025,-80.2
184.05,-80.2
184.075,-80.2
184.1,-80.2
184.125,-80.2
184.15,-80.2
184.175,-80.2
184.2,-80.2
184.225,-80.8
184.25,-80.8
184.275,-80.8
184.3,-80.8
184.325,-80.8
184.35,-80.8
184.375,-80.8
184.4,-81.8
184.425,-81.8
184.45,-81.8
184.475,-81.8
184.5,-81.8
184.525,-81.8
184.55,-81.8
184.575,-81.8
184.6,-82.4
184.625,-82.4
184.65,-82.4
184.675,-82.4
184.7,-82.4
184.725,-82.4
184.75,-82.4
184.775,-81.3
184.8,-81.3
184.825,-81.3
184.85,-81.3
184.875,-81.3
184.9,-81.3
184.925,-81.3
184.95,-80.9
184.975,-80.9
185.0,-80.9
185.025,-80.9
185.05,-80.9
185.075,-80.9
185.1,-80.9
185.125,-80.9
185.15,-82.1
185.175,-82.1
185.2,-82.1
185.225,-82.1
185.25,-82.1
185.275,-82.1
185.3,-82.1
185.325,-80.0
185.35,-80.0
185.375,-80.0
185.4,-80.0
185.425,-80.0
185.45,-80.0
185.475,-80.0
185.5,-81.4
185.525,-81.4
185.55,-81.4
185.575,-81.4
185.6,-81.4
185.625,-81.4
185.65,-81.4
185.675,-81.4
185.7,-81.5
185.725,-81.5
185.75,-81.5
185.775,-81.5
185.8,-81.5
185.825,-81.5
185.85,-81.5
185.875,-81.2
185.9,-81.2
185.925,-81.2
185.95,-81.2
185.975,-81.2
186.0,-81.2
186.025,-81.2
186.05,-81.2
186.075,-81.0
186.1,-81.0
186.125,-81.0
186.15,-81.0
186.175,-81.0
186.2,-81.0
186.225,-81.0
186.25,-82.5
186.275,-82.5
186.3,-82.5
186.325,-82.5
186.35,-82.5
186.375,-82.5
186.4,-82.5
186.425,-82.0
186.45,-82.0
186.475,-82.0
186.5,-82.0
186.525,-82.0
186.55,-82.0
186.575,-82.0
186.6,-82.0
186.625,-81.7
186.65,-81.7
186.675,-81.7
186.7,-81.7
186.725,-81.7
186.75,-81.7
186.775,-81.7
186.8,-80.5
186.825,-80.5
186.85,-80.5
186.875,-80.5
186.9,-80.5
186.925,-80.5
186.95,-80.5
186.975,-80.5
187.0,-82.0
187.025,-82.0
187.05,-82.0
187.075,-82.0
187.1,-82.0
187.125,-82.0
187.15,-82.0
187.175,-81.4
187.2,-81.4
187.225,-81.4
187.25,-81.4
187.275,-81.4
187.3,-81.4
187.325,-81.4
187.35,-81.7
187.375,-81.7
187.4,-81.7
187.425,-81.7
187.45,-81.7
187.475,-81.7
187.5,-81.7
187.525,-81.7
187.55,-80.7
187.575,-80.7
187.6,-80.7
187.625,-80.7
187.65,-80.7
187.675,-80.7
187.7,-80.7
187.725,-80.3
187.75,-80.3
187.775,-80.3
187.8,-80.3
187.825,-80.3
187.85,-80.3
187.875,-80.3
187.9,-80.3
187.925,-80.0
187.95,-80.0
187.975,-80.0
188.0,-80.0
188.025,-80.0
188.05,-80.0
188.075,-80.0
188.1,-82.4
188.125,-82.4
188.15,-82.4
188.175,-82.4
188.2,-82.4
188.225,-82.4
188.25,-82.4
188.275,-82.8
188.3,-82.8
188.325,-82.8
188.35,-82.8
188.375,-82.8
188.4,-82.8
188.425,-82.8
188.45,-82.8
188.475,-79.8
188.5,-79.8
188.525,-79.8
188.55,-79.8
188.575,-79.8
188.6,-79.8
188.625,-79.8
188.65,-80.1
188.675,-80.1
188.7,-80.1
188.725,-80.1
188.75,-80.1
188.775,-80.1
188.8,-80.1
188.825,-80.1
188.85,-81.6
188.875,-81.6
188.9,-81.6
188.925,-81.6
188.95,-81.6
188.975,-81.6
189.0,-81.6
189.025,-80.7
189.05,-80.7
189.075,-80.7
189.1,-80.7
189.125,-80.7
189.15,-80.7
189.175,-80.7
189.2,-82.8
189.225,-82.8
189.25,-82.8
189.275,-82.8
189.3,-82.8
189.325,-82.8
189.35,-82.8
189.375,-82.8
189.4,-82.2
189.425,-82.2
189.45,-82.2
189.475,-82.2
189.5,-82.2
189.525,-82.2
189.55,-82.2
189.575,-79.9
189.6,-79.9
189.625,-79.9
189.65,-79.9
189.675,-79.9
189.7,-79.9
189.725,-79.9
189.75,-80.0
189.775,-80.0
189.8,-80.0
189.825,-80.0
189.85,-80.0
189.875,-80.0
189.9,-80.0
189.925,-80.0
189.95,-82.1
189.975,-82.1
190.0,-82.1
190.025,-82.1
190.05,-82.1
190.075,-82.1
190.1,-82.1
190.125,-80.5
190.15,-80.5
190.175,-80.5
190.2,-80.5
190.225,-80.5
190.25,-80.5
190.275,-80.5
190.3,-80.5
190.325,-81.7
190.35,-81.7
190.375,-81.7
190.4,-81.7
190.425,-81.7
190.45,-81.7
190.475,-81.7
190.5,-82.3
190.525,-82.3
190.55,-82.3
190.575,-82.3
190.6,-82.3
190.625,-82.3
190.65,-82.3
190.675,-77.4
190.7,-77.4
190.725,-77.4
190.75,-77.4
190.775,-77.4
190.8,-77.4
190.825,-77.4
190.85,-77.4
190.875,-81.0
190.9,-81.0
190.925,-81.0
190.95,-81.0
190.975,-81.0
191.0,-81.0
191.025,-81.0
191.05,-80.7
191.075,-80.7
191.1,-80.7
191.125,-80.7
191.15,-80.7
191.175,-80.7
191.2,-80.7
191.225,-80.7
191.25,-81.3
191.275,-81.3
191.3,-81.3
191.325,-81.3
191.35,-81.3
191.375,-81.3
191.4,-81.3
191.425,-78.0
191.45,-78.0
191.475,-78.0
191.5,-78.0
191.525,-78.0
191.55,-78.0
191.575,-78.0
191.6,-78.6
191.625,-78.6
191.65,-78.6
191.675,-78.6
191.7,-78.6
191.725,-78.6
191.75,-78.6
191.775,-78.6
191.8,-74.0
191.825,-74.0
191.85,-74.0
191.875,-74.0
191.9,-74.0
191.925,-74.0
191.95,-74.0
191.975,-72.2
192.0,-72.2
192.025,-72.2
192.05,-72.2
192.075,-72.2
192.1,-72.2
192.125,-72.2
192.15,-72.2
192.175,-74.8
192.2,-74.8
192.225,-74.8
192.25,-74.8
192.275,-74.8
192.3,-74.8
192.325,-74.8
192.35,-77.7
192.375,-77.7
192.4,-77.7
192.425,-77.7
192.45,-77.7
192.475,-77.7
192.5,-77.7
192.525,-78.0
192.55,-78.0
192.575,-78.0
192.6,-78.0
192.625,-78.0
192.65,-78.0
192.675,-78.0
192.7,-78.0
192.725,-79.5
192.75,-79.5
192.775,-79.5
192.8,-79.5
192.825,-79.5
192.85,-79.5
192.875,-79.5
192.9,-79.6
192.925,-79.6
192.95,-79.6
192.975,-79.6
193.0,-79.6
193.025,-79.6
193.05,-79.6
193.075,-79.6
193.1,-80.3
193.125,-80.3
193.15,-80.3
193.175,-80.3
193.2,-80.3
193.225,-80.3
193.25,-80.3
193.275,-80.2
193.3,-80.2
193.325,-80.2
193.35,-80.2
193.375,-80.2
193.4,-80.2
193.425,-80.2
193.45,-80.9
193.475,-80.9
193.5,-80.9
193.525,-80.9
193.55,-80.9
193.575,-80.9
193.6,-80.9
193.625,-80.9
193.65,-80.5
193.675,-80.5
193.7,-80.5
193.725,-80.5
193.75,-80.5
193.775,-80.5
193.8,-80.5
193.825,-82.3
193.85,-82.3
193.875,-82.3
193.9,-82.3
193.925,-82.3
193.95,-82.3
193.975,-82.3
194.0,-78.7
194.0,-85.6
194.025,-85.6
194.05,-86.0
194.075,-86.0
194.1,-84.8
194.125,-84.8
194.15,-86.4
194.175,-85.0
194.2,-85.0
194.225,-84.5
194.25,-84.5
194.275,-85.4
194.3,-85.4
194.325,-85.7
194.35,-83.1
194.375,-83.1
194.4,-85.5
194.425,-85.5
194.45,-86.2
194.475,-86.2
194.5,-86.8
194.525,-86.8
194.55,-86.8
194.575,-86.5
194.6,-86.5
194.625,-85.0
194.65,-85.0
194.675,-86.6
194.7,-83.3
194.725,-83.3
194.75,-86.7
194.775,-86.7
194.8,-85.9
194.825,-85.9
194.85,-83.4
194.875,-84.3
194.9,-84.3
194.925,-86.2
194.95,-86.2
194.975,-83.8
195.0,-82.9
195.025,-82.9
195.05,-82.9
195.075,-82.9
195.1,-82.9
195.125,-82.9
195.15,-83.6
195.175,-84.3
195.2,-84.3
195.225,-85.2
195.25,-85.2
195.275,-87.2
195.3,-87.2
195.325,-85.2
195.35,-87.1
195.375,-87.1
195.4,-84.1
195.425,-84.1
195.45,-86.6
195.475,-86.6
195.5,-84.8
195.525,-84.7
195.55,-84.7
195.575,-86.3
195.6,-86.3
195.625,-86.8
195.65,-86.8
195.675,-84.8
195.7,-84.3
195.725,-84.3
195.75,-83.8
195.775,-83.8
195.8,-86.0
195.825,-86.0
195.85,-83.2
195.875,-83.5
195.9,-83.5
195.925,-85.2
195.95,-85.2
195.975,-86.9
196.0,-84.7
196.025,-84.7
196.05,-85.0
196.075,-85.0
196.1,-86.5
196.125,-86.5
196.15,-86.7
196.175,-86.4
196.2,-86.4
196.225,-85.5
196.25,-85.5
196.275,-85.5
196.3,-85.5
196.325,-84.7
196.35,-85.1
196.375,-85.1
196.4,-84.1
196.425,-84.1
196.45,-84.5
196.475,-84.5
196.5,-82.3
196.525,-83.7
196.55,-83.7
196.575,-85.5
196.6,-85.5
196.625,-83.2
196.65,-83.2
196.675,-84.1
196.7,-84.9
196.725,-84.9
196.75,-83.4
196.775,-83.4
196.8,-85.6
196.825,-85.6
196.85,-85.7
196.875,-85.5
196.9,-85.5
196.925,-81.0
196.95,-81.0
196.975,-84.9
197.0,-83.9
197.025,-83.9
197.05,-85.1
197.075,-85.1
197.1,-84.4
197.125,-84.4
197.15,-82.8
197.175,-82.1
197.2,-82.1
197.225,-83.1
197.25,-83.1
197.275,-83.7
197.3,-83.7
197.325,-81.2
197.35,-83.5
197.375,-83.5
197.4,-82.8
197.425,-82.8
197.45,-84.4
197.475,-84.4
197.5,-83.1
197.525,-83.9
197.55,-83.9
197.575,-83.5
197.6,-83.5
197.625,-84.2
197.65,-84.2
197.675,-79.9
197.7,-84.4
197.725,-84.4
197.75,-83.2
197.775,-83.2
197.8,-84.4
197.825,-84.4
197.85,-83.8
197.875,-84.1
197.9,-84.1
197.925,-84.1
197.95,-84.1
197.975,-84.4
198.0,-84.6
198.025,-84.6
198.05,-84.8
198.075,-84.8
198.1,-83.8
198.125,-83.8
198.15,-85.0
198.175,-84.2
198.2,-84.2
198.225,-84.3
198.25,-84.3
198.275,-85.7
198.3,-85.7
198.325,-83.1
198.35,-85.6
198.375,-85.6
198.4,-84.1
198.425,-84.1
198.45,-84.5
198.475,-84.5
198.5,-84.1
198.525,-84.0
198.55,-84.0
198.575,-84.9
198.6,-84.9
198.625,-84.6
198.65,-84.6
198.675,-84.8
198.7,-84.9
198.725,-84.9
198.75,-87.2
198.775,-87.2
198.8,-86.5
198.825,-86.5
198.85,-87.9
198.875,-80.1
198.9,-80.1
198.925,-87.5
198.95,-87.5
198.975,-88.1
199.0,-88.3
199.025,-88.3
199.05,-89.9
199.075,-89.9
199.1,-88.7
199.125,-88.7
199.15,-90.3
199.175,-88.7
199.2,-88.7
199.225,-90.0
199.25,-90.0
199.275,-90.1
199.3,-90.1
199.325,-90.0
199.35,-88.9
199.375,-88.9
199.4,-88.2
199.425,-88.2
199.45,-88.4
199.475,-88.4
199.5,-89.1
199.525,-89.3
199.55,-89.3
199.575,-88.2
199.6,-88.2
199.625,-89.1
199.65,-89.1
199.675,-88.2
199.7,-84.6
199.725,-84.6
199.75,-89.2
199.775,-89.2
199.8,-87.1
199.825,-87.1
199.85,-86.7
199.875,-86.6
199.9,-86.6
199.925,-87.0
199.95,-87.0
199.975,-86.4
200.0,-85.1
200.025,-85.1
200.05,-86.3
200.075,-86.3
200.1,-87.6
200.125,-87.6
200.15,-86.6
200.175,-89.1
200.2,-89.1
200.225,-90.9
200.25,-90.9
200.275,-87.3
200.3,-87.3
200.325,-89.1
200.35,-89.2
200.375,-89.2
200.4,-87.3
200.425,-87.3
200.45,-89.0
200.475,-89.0
200.5,-91.1
200.525,-89.7
200.55,-89.7
200.575,-85.1
200.6,-85.1
200.625,-90.0
200.65,-90.0
200.675,-90.0
200.7,-89.3
200.725,-89.3
200.75,-89.0
200.775,-89.0
200.8,-89.6
200.825,-89.6
200.85,-89.8
200.875,-89.1
200.9,-89.1
200.925,-87.1
200.95,-87.1
200.975,-89.3
201.0,-88.6
201.025,-88.6
201.05,-87.5
201.075,-87.5
201.1,-87.3
201.125,-87.3
201.15,-86.2
201.175,-85.6
201.2,-85.6
201.225,-86.0
201.25,-86.0
201.275,-80.9
201.3,-80.9
201.325,-84.2
201.35,-84.3
201.375,-84.3
201.4,-84.6
201.425,-84.6
201.45,-84.2
201.475,-84.2
201.5,-84.6
201.525,-83.7
201.55,-83.7
201.575,-84.2
201.6,-84.2
201.625,-85.1
201.65,-85.1
201.675,-85.9
201.7,-86.3
201.725,-86.3
201.75,-85.0
201.775,-85.0
201.8,-86.9
201.825,-86.9
201.85,-86.8
201.875,-84.3
201.9,-84.3
201.925,-86.0
201.95,-86.0
201.975,-84.8
202.0,-84.3
202.025,-84.3
202.05,-83.1
202.075,-83.1
202.1,-85.1
202.125,-85.1
202.15,-85.1
202.175,-83.9
202.2,-83.9
202.225,-86.0
202.25,-86.0
202.275,-84.5
202.3,-84.5
202.325,-86.3
202.35,-84.3
202.375,-84.3
202.4,-83.1
202.425,-83.1
202.45,-84.5
202.475,-84.5
202.5,-82.9
202.525,-84.3
202.55,-84.3
202.575,-84.1
202.6,-84.1
202.625,-84.0
202.65,-84.0
202.675,-84.0
202.7,-82.0
202.725,-82.0
202.75,-82.4
202.775,-82.4
202.8,-81.5
202.825,-81.5
202.85,-82.2
202.875,-81.4
202.9,-81.4
202.925,-82.7
202.95,-82.7
202.975,-83.0
203.0,-83.5
203.025,-83.5
203.05,-85.4
203.075,-85.4
203.1,-83.9
203.125,-83.9
203.15,-84.1
203.175,-85.2
203.2,-85.2
203.225,-84.1
203.25,-84.1
203.275,-84.3
203.3,-84.3
203.325,-85.2
203.35,-84.1
203.375,-84.1
203.4,-83.9
203.425,-83.9
203.45,-86.4
203.475,-86.4
203.5,-85.4
203.525,-85.9
203.55,-85.9
203.575,-85.6
203.6,-85.6
203.625,-85.9
203.65,-85.9
203.675,-84.6
203.7,-84.8
203.725,-84.8
203.75,-85.6
203.775,-85.6
203.8,-84.8
203.825,-84.8
203.85,-84.6
203.875,-85.7
203.9,-85.7
203.925,-85.9
203.95,-85.9
203.975,-83.6
204.0,-84.7
204.025,-84.7
204.05,-84.7
204.075,-84.7
204.1,-84.1
204.125,-84.1
204.15,-84.4
204.175,-84.0
204.2,-84.0
204.225,-83.7
204.25,-83.7
204.275,-83.6
204.3,-83.6
204.325,-84.3
204.35,-85.5
204.375,-85.5
204.4,-85.7
204.425,-85.7
204.45,-86.0
204.475,-86.0
204.5,-87.0
204.525,-87.3
204.55,-87.3
204.575,-86.1
204.6,-86.1
204.625,-88.1
204.65,-88.1
204.675,-87.2
204.7,-80.3
204.725,-80.3
204.75,-88.9
204.775,-88.9
204.8,-88.2
204.825,-88.2
204.85,-87.7
204.875,-85.6
204.9,-85.6
204.925,-86.3
204.95,-86.3
204.975,-84.8
205.0,-83.6
205.025,-83.6
205.05,-81.9
205.075,-81.9
205.1,-80.4
205.125,-80.4
205.15,-78.4
205.175,-77.6
205.2,-77.6
205.225,-75.5
205.25,-75.5
205.275,-74.7
205.3,-74.7
205.325,-75.4
205.35,-75.5
205.375,-75.5
205.4,-76.3
205.425,-76.3
205.45,-76.6
205.475,-76.6
205.5,-78.8
205.525,-80.3
205.55,-80.3
205.575,-81.7
205.6,-81.7
205.625,-84.0
205.65,-84.0
205.675,-84.3
205.7,-86.2
205.725,-86.2
205.75,-87.4
205.775,-87.4
205.8,-87.2
205.825,-87.2
205.85,-86.4
205.875,-88.8
205.9,-88.8
205.925,-88.1
205.95,-88.1
205.975,-88.7
206.0,-88.5
206.025,-88.5
206.05,-89.9
206.075,-89.9
206.1,-89.2
206.125,-89.2
206.15,-91.6
206.175,-85.7
206.2,-85.7
206.225,-88.0
206.25,-88.0
206.275,-88.5
206.3,-88.5
206.325,-90.1
206.35,-89.9
206.375,-89.9
206.4,-90.1
206.425,-90.1
206.45,-87.8
206.475,-87.8
206.5,-90.6
206.525,-90.8
206.55,-90.8
206.575,-87.9
206.6,-87.9
206.625,-89.4
206.65,-89.4
206.675,-89.2
206.7,-88.5
206.725,-88.5
206.75,-89.5
206.775,-89.5
206.8,-87.5
206.825,-87.5
206.85,-87.5
206.875,-86.4
206.9,-86.4
206.925,-85.7
206.95,-85.7
206.975,-87.0
207.0,-86.8
207.025,-86.8
207.05,-86.4
207.075,-86.4
207.1,-87.4
207.125,-87.4
207.15,-87.2
207.175,-87.0
207.2,-87.0
207.225,-86.7
207.25,-86.7
207.275,-86.8
207.3,-86.8
207.325,-88.8
207.35,-88.6
207.375,-88.6
207.4,-85.8
207.425,-85.8
207.45,-89.4
207.475,-89.4
207.5,-89.0
207.525,-89.1
207.55,-89.1
207.575,-87.7
207.6,-87.7
207.625,-89.3
207.65,-89.3
207.675,-89.8
207.7,-88.8
207.725,-88.8
207.75,-88.7
207.775,-88.7
207.8,-89.8
207.825,-89.8
207.85,-89.7
207.875,-89.8
207.9,-89.8
207.925,-88.7
207.95,-88.7
207.975,-88.1
208.0,-86.4
208.025,-86.4
208.05,-88.1
208.075,-88.1
208.1,-88.6
208.125,-88.6
208.15,-88.6
208.175,-85.9
208.2,-85.9
208.225,-89.4
208.25,-89.4
208.275,-88.5
208.3,-88.5
208.325,-85.6
208.35,-88.1
208.375,-88.1
208.4,-90.0
208.425,-90.0
208.45,-88.9
208.475,-88.9
208.5,-89.8
208.525,-89.9
208.55,-89.9
208.575,-91.1
208.6,-91.1
208.625,-89.7
208.65,-89.7
208.675,-90.4
208.7,-89.0
208.725,-89.0
208.75,-91.0
208.775,-91.0
208.8,-88.2
208.825,-88.2
208.85,-90.0
208.875,-90.4
208.9,-90.4
208.925,-90.9
208.95,-90.9
208.975,-88.9
209.0,-90.9
209.025,-90.9
209.05,-90.4
209.075,-90.4
209.1,-89.0
209.125,-89.0
209.15,-91.9
209.175,-90.7
209.2,-90.7
209.225,-92.4
209.25,-92.4
209.275,-90.7
209.3,-90.7
209.325,-91.1
209.35,-91.2
209.375,-91.2
209.4,-91.6
209.425,-91.6
209.45,-91.1
209.475,-91.1
209.5,-92.5
209.525,-92.7
209.55,-92.7
209.575,-92.7
209.6,-92.7
209.625,-91.3
209.65,-91.3
209.675,-92.0
209.7,-92.7
209.725,-92.7
209.75,-91.1
209.775,-91.1
209.8,-88.6
209.825,-88.6
209.85,-91.7
209.875,-90.5
209.9,-90.5
209.925,-90.6
209.95,-90.6
209.975,-90.6
210.0,-91.2
210.025,-91.2
210.05,-90.6
210.075,-90.6
210.1,-90.6
210.125,-90.6
210.15,-92.4
210.175,-91.8
210.2,-91.8
210.225,-90.9
210.25,-90.9
210.275,-92.2
210.3,-92.2
210.325,-91.9
210.35,-89.0
210.375,-89.0
210.4,-90.8
210.425,-90.8
210.45,-89.9
210.475,-89.9
210.5,-90.7
210.525,-90.7
210.55,-90.7
210.575,-91.7
210.6,-91.7
210.625,-92.2
210.65,-92.2
210.675,-91.8
210.7,-91.6
210.725,-91.6
210.75,-90.6
210.775,-90.6
210.8,-92.9
210.825,-92.9
210.85,-92.8
210.875,-91.5
210.9,-91.5
210.925,-91.4
210.95,-91.4
210.975,-90.8
211.0,-93.6
211.025,-93.6
211.05,-92.0
211.075,-92.0
211.1,-92.2
211.125,-92.2
211.15,-89.7
211.175,-90.8
211.2,-90.8
211.225,-91.7
211.25,-91.7
211.275,-91.6
211.3,-91.6
211.325,-91.9
211.35,-93.0
211.375,-93.0
211.4,-91.2
211.425,-91.2
211.45,-91.6
211.475,-91.6
211.5,-91.4
211.525,-93.2
211.55,-93.2
211.575,-92.9
211.6,-92.9
211.625,-91.2
211.65,-91.2
211.675,-92.3
211.7,-90.9
211.725,-90.9
211.75,-92.4
211.775,-92.4
211.8,-92.5
211.825,-92.5
211.85,-92.5
211.875,-91.1
211.9,-91.1
211.925,-92.3
211.95,-92.3
211.975,-93.2
212.0,-92.8
212.025,-92.8
212.05,-93.4
212.075,-93.4
212.1,-92.5
212.125,-92.5
212.15,-92.4
212.175,-91.0
212.2,-91.0
212.225,-89.3
212.25,-89.3
212.275,-91.0
212.3,-91.0
212.325,-91.5
212.35,-93.3
212.375,-93.3
212.4,-92.0
212.425,-92.0
212.45,-91.5
212.475,-91.5
212.5,-92.9
212.525,-92.6
212.55,-92.6
212.575,-94.0
212.6,-94.0
212.625,-91.7
212.65,-91.7
212.675,-90.9
212.7,-92.9
212.725,-92.9
212.75,-91.2
212.775,-91.2
212.8,-93.4
212.825,-93.4
212.85,-91.6
212.875,-92.1
212.9,-92.1
212.925,-92.3
212.95,-92.3
212.975,-91.3
213.0,-90.4
213.025,-90.4
213.05,-92.9
213.075,-92.9
213.1,-91.7
213.125,-91.7
213.15,-90.3
213.175,-93.2
213.2,-93.2
213.225,-92.1
213.25,-92.1
213.275,-92.3
213.3,-92.3
213.325,-91.4
213.35,-92.5
213.375,-92.5
213.4,-88.5
213.425,-88.5
213.45,-90.1
213.475,-90.1
213.5,-90.2
213.525,-90.0
213.55,-90.0
213.575,-92.9
213.6,-92.9
213.625,-90.8
213.65,-90.8
213.675,-92.6
213.7,-91.3
213.725,-91.3
213.75,-90.0
213.775,-90.0
213.8,-92.5
213.825,-92.5
213.85,-89.2
213.875,-93.5
213.9,-93.5
213.925,-90.5
213.95,-90.5
213.975,-92.2
214.0,-92.2
214.0,-102.6
214.025,-102.2
214.05,-102.4
214.075,-102.2
214.1,-101.6
214.125,-101.9
214.15,-102.6
214.175,-103.6
214.2,-104.2
214.225,-103.1
214.25,-102.5
214.275,-102.1
214.3,-101.8
214.325,-101.1
214.35,-100.6
214.375,-102.3
214.4,-102.1
214.425,-103.3
214.45,-102.2
214.475,-102.5
214.5,-102.9
214.525,-104.0
214.55,-102.5
214.575,-100.0
214.6,-102.8
214.625,-101.3
214.65,-103.4
214.675,-103.3
214.7,-101.9
214.725,-102.8
214.75,-98.3
214.775,-91.3
214.8,-98.9
214.825,-102.8
214.85,-101.1
214.875,-100.8
214.9,-101.8
214.925,-102.5
214.95,-101.3
214.975,-102.6
215.0,-98.7
215.025,-100.8
215.05,-100.9
215.075,-101.2
215.1,-102.4
215.125,-100.8
215.15,-101.3
215.175,-101.4
215.2,-99.6
215.225,-101.6
215.25,-98.7
215.275,-101.9
215.3,-98.6
215.325,-97.6
215.35,-96.8
215.375,-96.9
215.4,-99.9
215.425,-97.4
215.45,-95.8
215.475,-95.7
215.5,-96.0
215.525,-95.4
215.55,-91.7
215.575,-82.1
215.6,-83.6
215.625,-90.2
215.65,-96.7
215.675,-90.4
215.7,-94.2
215.725,-96.8
215.75,-97.1
215.775,-100.6
215.8,-95.2
215.825,-97.6
215.85,-102.8
215.875,-98.5
215.9,-98.9
215.925,-101.3
215.95,-101.8
215.975,-101.5
216.0,-97.2
216.025,-97.8
216.05,-100.8
216.075,-103.3
216.1,-102.2
216.125,-102.9
216.15,-102.0
216.175,-102.6
216.2,-102.1
216.225,-102.9
216.25,-101.9
216.275,-101.9
216.3,-102.2
216.325,-103.0
216.35,-103.0
216.375,-100.9
216.4,-102.2
216.425,-103.0
216.45,-102.0
216.475,-100.8
216.5,-102.3
216.525,-102.3
216.55,-101.1
216.575,-97.7
216.6,-101.6
216.625,-101.1
216.65,-102.4
216.675,-100.4
216.7,-102.9
216.725,-103.4
216.75,-102.3
216.775,-102.6
216.8,-101.3
216.825,-102.3
216.85,-103.0
216.875,-101.5
216.9,-104.0
216.925,-102.6
216.95,-102.2
216.975,-102.5
217.0,-103.1
217.025,-103.4
217.05,-101.3
217.075,-102.2
217.1,-102.8
217.125,-102.1
217.15,-103.0
217.175,-101.4
217.2,-103.2
217.225,-99.2
217.25,-103.4
217.275,-102.3
217.3,-103.2
217.325,-100.7
217.35,-101.7
217.375,-102.9
217.4,-103.3
217.425,-102.2
217.45,-104.0
217.475,-101.9
217.5,-102.3
217.525,-101.1
217.55,-103.1
217.575,-102.8
217.6,-104.0
217.625,-103.1
217.65,-100.2
217.675,-101.4
217.7,-102.4
217.725,-103.4
217.75,-101.9
217.775,-104.2
217.8,-101.1
217.825,-102.1
217.85,-103.3
217.875,-101.1
217.9,-104.3
217.925,-103.1
217.95,-101.3
217.975,-102.8
218.0,-103.2
400.0,-89.2
400.025,-89.2
400.05,-89.2
400.075,-89.2
400.1,-89.2
400.125,-89.2
400.15,-89.2
400.175,-89.2
400.2,-89.2
400.225,-88.9
400.25,-87.4
400.275,-87.4
400.3,-87.4
400.325,-87.4
400.35,-87.4
400.375,-87.4
400.4,-87.4
400.425,-87.4
400.45,-87.4
400.475,-87.4
400.5,-87.4
400.525,-87.4
400.55,-87.4
400.575,-87.4
400.6,-87.4
400.625,-87.4
400.65,-87.4
400.675,-87.4
400.7,-89.5
400.725,-89.5
400.75,-89.5
400.775,-89.5
400.8,-89.5
400.825,-89.5
400.85,-89.5
400.875,-89.5
400.9,-89.5
400.925,-89.5
400.95,-89.5
400.975,-89.5
401.0,-89.5
401.025,-89.5
401.05,-89.5
401.075,-89.5
401.1,-89.5
401.125,-89.4
401.15,-89.4
401.175,-89.4
401.2,-89.4
401.225,-89.4
401.25,-89.4
401.275,-89.4
401.3,-89.4
401.325,-89.4
401.35,-89.4
401.375,-89.4
401.4,-89.4
401.425,-89.4
401.45,-89.4
401.475,-89.4
401.5,-89.4
401.525,-89.4
401.55,-89.4
401.575,-88.0
401.6,-88.0
401.625,-88.0
401.65,-88.0
401.675,-88.0
401.7,-88.0
401.725,-88.0
401.75,-88.0
401.775,-88.0
401.8,-88.0
401.825,-88.0
401.85,-88.0
401.875,-88.0
401.9,-88.0
401.925,-88.0
401.95,-88.0
401.975,-88.0
402.0,-87.8
402.025,-87.8
402.05,-87.8
402.075,-87.8
402.1,-87.8
402.125,-87.8
402.15,-87.8
402.175,-87.8
402.2,-87.8
402.225,-87.8
402.25,-87.8
402.275,-87.8
402.3,-87.8
402.325,-87.8
402.35,-87.8
402.375,-87.8
402.4,-87.8
402.425,-87.8
402.45,-90.0
402.475,-90.0
402.5,-90.0
402.525,-90.0
402.55,-90.0
402.575,-90.0
402.6,-90.0
402.625,-90.0
402.65,-90.0
402.675,-90.0
402.7,-90.0
402.725,-90.0
402.75,-90.0
402.775,-90.0
402.8,-90.0
402.825,-90.0
402.85,-90.0
402.875,-89.7
402.9,-89.7
402.925,-89.7
402.95,-89.7
402.975,-89.7
403.0,-89.7
403.025,-89.7
403.05,-89.7
403.075,-89.7
403.1,-89.7
403.125,-89.7
403.15,-89.7
403.175,-89.7
403.2,-89.7
403.225,-89.7
403.25,-89.7
403.275,-89.7
403.3,-89.7
403.325,-90.1
403.35,-90.1
403.375,-90.1
403.4,-90.1
403.425,-90.1
403.45,-90.1
403.475,-90.1
403.5,-90.1
403.525,-90.1
403.55,-90.1
403.575,-90.1
403.6,-90.1
403.625,-90.1
403.65,-90.1
403.675,-90.1
403.7,-90.1
403.725,-90.1
403.75,-90.1
403.775,-90.0
403.8,-90.0
403.825,-90.0
403.85,-90.0
403.875,-90.0
403.9,-90.0
403.925,-90.0
403.95,-90.0
403.975,-90.0
404.0,-90.0
404.025,-90.0
404.05,-90.0
404.075,-90.0
404.1,-90.0
404.125,-90.0
404.15,-90.0
404.175,-90.0
404.2,-88.7
404.225,-88.7
404.25,-88.7
404.275,-88.7
404.3,-88.7
404.325,-88.7
404.35,-88.7
404.375,-88.7
404.4,-88.7
404.425,-88.7
404.45,-88.7
404.475,-88.7
404.5,-88.7
404.525,-88.7
404.55,-88.7
404.575,-88.7
404.6,-88.7
404.625,-88.7
404.65,-89.1
404.675,-89.1
404.7,-89.1
404.725,-89.1
404.75,-89.1
404.775,-89.1
404.8,-89.1
404.825,-89.1
404.85,-89.1
404.875,-89.1
404.9,-89.1
404.925,-89.1
404.95,-89.1
404.975,-89.1
405.0,-89.1
405.025,-89.1
405.05,-89.1
405.075,-88.1
405.1,-88.1
405.125,-88.1
405.15,-88.1
405.175,-88.1
405.2,-88.1
405.225,-88.1
405.25,-88.1
405.275,-88.1
405.3,-88.1
405.325,-88.1
405.35,-88.1
405.375,-88.1
405.4,-88.1
405.425,-88.1
405.45,-88.1
405.475,-88.1
405.5,-88.1
405.525,-89.0
405.55,-89.0
405.575,-89.0
405.6,-89.0
405.625,-89.0
405.65,-89.0
405.675,-89.0
405.7,-89.0
405.725,-89.0
405.75,-89.0
405.775,-89.0
405.8,-89.0
405.825,-89.0
405.85,-89.0
405.875,-89.0
405.9,-89.0
405.925,-89.0
405.95,-89.4
405.975,-89.4
406.0,-89.4
406.025,-89.4
406.05,-89.4
406.075,-89.4
406.1,-89.4
406.125,-89.4
406.15,-89.4
406.175,-89.4
406.2,-89.4
406.225,-89.4
406.25,-89.4
406.275,-89.4
406.3,-89.4
406.325,-89.4
406.35,-89.4
406.375,-89.4
406.4,-89.5
406.425,-89.5
406.45,-89.5
406.475,-89.5
406.5,-89.5
406.525,-89.5
406.55,-89.5
406.575,-89.5
406.6,-89.5
406.625,-89.5
406.65,-89.5
406.675,-89.5
406.7,-89.5
406.725,-89.5
406.75,-89.5
406.775,-89.5
406.8,-89.5
406.825,-89.5
406.85,-88.0
406.875,-88.0
406.9,-88.0
406.925,-88.0
406.95,-88.0
406.975,-88.0
407.0,-88.0
407.025,-88.0
407.05,-88.0
407.075,-88.0
407.1,-88.0
407.125,-88.0
407.15,-88.0
407.175,-88.0
407.2,-88.0
407.225,-88.0
407.25,-88.0
407.275,-89.0
407.3,-89.0
407.325,-89.0
407.35,-89.0
407.375,-89.0
407.4,-89.0
407.425,-89.0
407.45,-89.0
407.475,-89.0
407.5,-89.0
407.525,-89.0
407.55,-89.0
407.575,-89.0
407.6,-89.0
407.625,-89.0
407.65,-89.0
407.675,-89.0
407.7,-89.0
407.725,-89.7
407.75,-89.7
407.775,-89.7
407.8,-89.7
407.825,-89.7
407.85,-89.7
407.875,-89.7
407.9,-89.7
407.925,-89.7
407.95,-89.7
407.975,-89.7
408.0,-89.7
408.025,-89.7
408.05,-89.7
408.075,-89.7
408.1,-89.7
408.125,-89.7
408.15,-89.6
408.175,-89.6
408.2,-89.6
408.225,-89.6
408.25,-89.6
408.275,-89.6
408.3,-89.6
408.325,-89.6
408.35,-89.6
408.375,-89.6
408.4,-89.6
408.425,-89.6
408.45,-89.6
408.475,-89.6
408.5,-89.6
408.525,-89.6
408.55,-89.6
408.575,-89.6
408.6,-89.9
408.625,-89.9
408.65,-89.9
408.675,-89.9
408.7,-89.9
408.725,-89.9
408.75,-89.9
408.775,-89.9
408.8,-89.9
408.825,-89.9
408.85,-89.9
408.875,-89.9
408.9,-89.9
408.925,-89.9
408.95,-89.9
408.975,-89.9
409.0,-89.9
409.025,-88.1
409.05,-88.1
409.075,-88.1
409.1,-88.1
409.125,-88.1
409.15,-88.1
409.175,-88.1
409.2,-88.1
409.225,-88.1
409.25,-88.1
409.275,-88.1
409.3,-88.1
409.325,-88.1
409.35,-88.1
409.375,-88.1
409.4,-88.1
409.425,-88.1
409.45,-88.1
409.475,-89.4
409.5,-89.4
409.525,-89.4
409.55,-89.4
409.575,-89.4
409.6,-89.4
409.625,-89.4
409.65,-89.4
409.675,-89.4
409.7,-89.4
409.725,-89.4
409.75,-89.4
409.775,-89.4
409.8,-89.4
409.825,-89.4
409.85,-89.4
409.875,-89.4
409.9,-86.8
409.925,-86.8
409.95,-86.8
409.975,-86.8
410.0,-86.8
410.025,-86.8
410.05,-86.8
410.075,-86.8
410.1,-86.8
410.125,-86.8
410.15,-86.8
410.175,-86.8
410.2,-86.8
410.225,-86.8
410.25,-86.8
410.275,-86.8
410.3,-86.8
410.325,-86.8
410.35,-85.2
410.375,-85.2
410.4,-85.2
410.425,-85.2
410.45,-85.2
410.475,-85.2
410.5,-85.2
410.525,-85.2
410.55,-85.2
410.575,-85.2
410.6,-85.2
410.625,-85.2
410.65,-85.2
410.675,-85.2
410.7,-85.2
410.725,-85.2
410.75,-85.2
410.775,-85.2
410.8,-84.9
410.825,-84.9
410.85,-84.9
410.875,-84.9
410.9,-84.9
410.925,-84.9
410.95,-84.9
410.975,-84.9
411.0,-84.9
411.025,-84.9
411.05,-84.9
411.075,-84.9
411.1,-84.9
411.125,-84.9
411.15,-84.9
411.175,-84.9
411.2,-84.9
411.225,-87.6
411.25,-87.6
411.275,-87.6
411.3,-87.6
411.325,-87.6
411.35,-87.6
411.375,-87.6
411.4,-87.6
411.425,-87.6
411.45,-87.6
411.475,-87.6
411.5,-87.6
411.525,-87.6
411.55,-87.6
411.575,-87.6
411.6,-87.6
411.625,-87.6
411.65,-87.6
411.675,-88.1
411.7,-88.1
411.725,-88.1
411.75,-88.1
411.775,-88.1
411.8,-88.1
411.825,-88.1
411.85,-88.1
411.875,-88.1
411.9,-88.1
411.925,-88.1
411.95,-88.1
411.975,-88.1
412.0,-88.1
412.025,-88.1
412.05,-88.1
412.075,-88.1
412.1,-88.1
412.125,-88.1
412.15,-88.1
412.175,-88.1
412.2,-88.1
412.225,-88.1
412.25,-88.1
412.275,-88.1
412.3,-88.1
412.325,-88.1
412.35,-88.1
412.375,-88.1
412.4,-88.1
412.425,-88.1
412.45,-88.1
412.475,-88.1
412.5,-88.1
412.525,-88.1
412.55,-85.8
412.575,-85.8
412.6,-85.8
412.625,-85.8
412.65,-85.8
412.675,-85.8
412.7,-85.8
412.725,-85.8
412.75,-85.8
412.775,-85.8
412.8,-85.8
412.825,-85.8
412.85,-85.8
412.875,-85.8
412.9,-85.8
412.925,-85.8
412.95,-85.8
412.975,-87.3
413.0,-87.3
413.025,-87.3
413.05,-87.3
413.075,-87.3
413.1,-87.3
413.125,-87.3
413.15,-87.3
413.175,-87.3
413.2,-87.3
413.225,-87.3
413.25,-87.3
413.275,-87.3
413.3,-87.3
413.325,-87.3
413.35,-87.3
413.375,-87.3
413.4,-87.3
413.425,-88.1
413.45,-88.1
413.475,-88.1
413.5,-88.1
413.525,-88.1
413.55,-88.1
413.575,-88.1
413.6,-88.1
413.625,-88.1
413.65,-88.1
413.675,-88.1
413.7,-88.1
413.725,-88.1
413.75,-88.1
413.775,-88.1
413.8,-88.1
413.825,-88.1
413.85,-88.1
413.875,-88.5
413.9,-88.5
413.925,-88.5
413.95,-88.5
413.975,-88.5
414.0,-88.5
414.025,-88.5
414.05,-88.5
414.075,-88.5
414.1,-88.5
414.125,-88.5
414.15,-88.5
414.175,-88.5
414.2,-88.5
414.225,-88.5
414.25,-88.5
414.275,-88.5
414.3,-88.3
414.325,-88.3
414.35,-88.3
414.375,-88.3
414.4,-88.3
414.425,-88.3
414.45,-88.3
414.475,-88.3
414.5,-88.3
414.525,-88.3
414.55,-88.3
414.575,-88.3
414.6,-88.3
414.625,-88.3
414.65,-88.3
414.675,-88.3
414.7,-88.3
414.725,-88.3
414.75,-88.9
414.775,-88.9
414.8,-88.9
414.825,-88.9
414.85,-88.9
414.875,-88.9
414.9,-88.9
414.925,-88.9
414.95,-88.9
414.975,-88.9
415.0,-88.9
415.025,-88.9
415.05,-88.9
415.075,-88.9
415.1,-88.9
415.125,-88.9
415.15,-88.9
415.175,-90.8
415.2,-90.8
415.225,-90.8
415.25,-90.8
415.275,-90.8
415.3,-90.8
415.325,-90.8
415.35,-90.8
415.375,-90.8
415.4,-90.8
415.425,-90.8
415.45,-90.8
415.475,-90.8
415.5,-90.8
415.525,-90.8
415.55,-90.8
415.575,-90.8
415.6,-90.8
415.625,-89.7
415.65,-89.7
415.675,-89.7
415.7,-89.7
415.725,-89.7
415.75,-89.7
415.775,-89.7
415.8,-89.7
415.825,-89.7
415.85,-89.7
415.875,-89.7
415.9,-89.7
415.925,-89.7
415.95,-89.7
415.975,-89.7
416.0,-89.7
416.025,-89.7
416.05,-90.4
416.075,-90.4
416.1,-90.4
416.125,-90.4
416.15,-90.4
416.175,-90.4
416.2,-90.4
416.225,-90.4
416.25,-90.4
416.275,-90.4
416.3,-90.4
416.325,-90.4
416.35,-90.4
416.375,-90.4
416.4,-90.4
416.425,-90.4
416.45,-90.4
416.475,-90.4
416.5,-90.1
416.525,-90.1
416.55,-90.1
416.575,-90.1
416.6,-90.1
416.625,-90.1
416.65,-90.1
416.675,-90.1
416.7,-90.1
416.725,-90.1
416.75,-90.1
416.775,-90.1
416.8,-90.1
416.825,-90.1
416.85,-90.1
416.875,-90.1
416.9,-90.1
416.925,-90.1
416.95,-90.4
416.975,-90.4
417.0,-90.4
417.025,-90.4
417.05,-90.4
417.075,-90.4
417.1,-90.4
417.125,-90.4
417.15,-90.4
417.175,-90.4
417.2,-90.4
417.225,-90.4
417.25,-90.4
417.275,-90.4
417.3,-90.4
417.325,-90.4
417.35,-90.4
417.375,-89.0
417.4,-89.0
417.425,-89.0
417.45,-89.0
417.475,-89.0
417.5,-89.0
417.525,-89.0
417.55,-89.0
417.575,-89.0
417.6,-89.0
417.625,-89.0
417.65,-89.0
417.675,-89.0
417.7,-89.0
417.725,-89.0
417.75,-89.0
417.775,-89.0
417.8,-89.0
417.825,-88.4
417.85,-88.4
417.875,-88.4
417.9,-88.4
417.925,-88.4
417.95,-88.4
417.975,-88.4
418.0,-88.4
418.025,-88.4
418.05,-88.4
418.075,-88.4
418.1,-88.4
418.125,-88.4
418.15,-88.4
418.175,-88.4
418.2,-88.4
418.225,-88.4
418.25,-87.6
418.275,-87.6
418.3,-87.6
418.325,-87.6
418.35,-87.6
418.375,-87.6
418.4,-87.6
418.425,-87.6
418.45,-87.6
418.475,-87.6
418.5,-87.6
418.525,-87.6
418.55,-87.6
418.575,-87.6
418.6,-87.6
418.625,-87.6
418.65,-87.6
418.675,-87.6
418.7,-90.4
418.725,-90.4
418.75,-90.4
418.775,-90.4
418.8,-90.4
418.825,-90.4
418.85,-90.4
418.875,-90.4
418.9,-90.4
418.925,-90.4
418.95,-90.4
418.975,-90.4
419.0,-90.4
419.025,-90.4
419.05,-90.4
419.075,-90.4
419.1,-90.4
419.125,-90.7
419.15,-90.7
419.175,-90.7
419.2,-90.7
419.225,-90.7
419.25,-90.7
419.275,-90.7
419.3,-90.7
419.325,-90.7
419.35,-90.7
419.375,-90.7
419.4,-90.7
419.425,-90.7
419.45,-90.7
419.475,-90.7
419.5,-90.7
419.525,-90.7
419.55,-90.7
419.575,-90.6
419.6,-90.6
419.625,-90.6
419.65,-90.6
419.675,-90.6
419.7,-90.6
419.725,-90.6
419.75,-90.6
419.775,-90.6
419.8,-90.6
419.825,-90.6
419.85,-90.6
419.875,-90.6
419.9,-90.6
419.925,-90.6
419.95,-90.6
419.975,-90.6
420.0,-90.5
420.0,-95.5
420.025,-95.5
420.05,-95.8
420.075,-95.8
420.1,-95.1
420.125,-95.1
420.15,-92.4
420.175,-95.1
420.2,-95.1
420.225,-95.9
420.25,-95.9
420.275,-92.7
420.3,-92.7
420.325,-95.2
420.35,-94.0
420.375,-94.0
420.4,-97.2
420.425,-97.2
420.45,-96.8
420.475,-96.8
420.5,-95.0
420.525,-94.3
420.55,-94.3
420.575,-93.9
420.6,-93.9
420.625,-94.2
420.65,-94.2
420.675,-95.4
420.7,-95.2
420.725,-95.2
420.75,-95.9
420.775,-95.9
420.8,-94.1
420.825,-94.1
420.85,-96.1
420.875,-94.0
420.9,-94.0
420.925,-94.5
420.95,-94.5
420.975,-95.6
421.0,-95.2
421.025,-95.2
421.05,-94.6
421.075,-94.6
421.1,-92.8
421.125,-92.8
421.15,-90.7
421.175,-88.8
421.2,-88.8
421.225,-88.4
421.25,-88.4
421.275,-87.2
421.3,-87.2
421.325,-85.4
421.35,-86.7
421.375,-86.7
421.4,-87.1
421.425,-87.1
421.45,-87.4
421.475,-87.4
421.5,-89.3
421.525,-89.6
421.55,-89.6
421.575,-91.0
421.6,-91.0
421.625,-91.0
421.65,-91.0
421.675,-93.4
421.7,-94.3
421.725,-94.3
421.75,-94.2
421.775,-94.2
421.8,-95.3
421.825,-95.3
421.85,-93.7
421.875,-95.3
421.9,-95.3
421.925,-94.5
421.95,-94.5
421.975,-95.9
422.0,-95.3
422.025,-95.3
422.05,-95.0
422.075,-95.0
422.1,-95.0
422.125,-95.0
422.15,-95.1
422.175,-95.6
422.2,-95.6
422.225,-95.6
422.25,-95.6
422.275,-96.2
422.3,-96.2
422.325,-95.5
422.35,-93.7
422.375,-93.7
422.4,-95.7
422.425,-95.7
422.45,-95.1
422.475,-95.1
422.5,-94.2
422.525,-94.6
422.55,-94.6
422.575,-95.2
422.6,-95.2
422.625,-94.5
422.65,-94.5
422.675,-95.2
422.7,-93.2
422.725,-93.2
422.75,-95.3
422.775,-95.3
422.8,-92.7
422.825,-92.7
422.85,-96.4
422.875,-94.4
422.9,-94.4
422.925,-96.7
422.95,-96.7
422.975,-94.9
423.0,-95.1
423.025,-95.1
423.05,-92.7
423.075,-92.7
423.1,-95.3
423.125,-95.3
423.15,-94.4
423.175,-95.0
423.2,-95.0
423.225,-95.3
423.25,-95.3
423.275,-94.8
423.3,-94.8
423.325,-93.2
423.35,-96.3
423.375,-96.3
423.4,-96.8
423.425,-96.8
423.45,-94.1
423.475,-94.1
423.5,-92.6
423.525,-94.1
423.55,-94.1
423.575,-94.2
423.6,-94.2
423.625,-94.4
423.65,-94.4
423.675,-94.0
423.7,-93.7
423.725,-93.7
423.75,-97.2
423.775,-97.2
423.8,-92.7
423.825,-92.7
423.85,-92.5
423.875,-95.1
423.9,-95.1
423.925,-95.5
423.95,-95.5
423.975,-96.2
424.0,-93.0
424.025,-93.0
424.05,-95.4
424.075,-95.4
424.1,-96.2
424.125,-96.2
424.15,-96.0
424.175,-94.7
424.2,-94.7
424.225,-94.7
424.25,-94.7
424.275,-93.6
424.3,-93.6
424.325,-95.6
424.35,-95.9
424.375,-95.9
424.4,-95.1
424.425,-95.1
424.45,-96.2
424.475,-96.2
424.5,-94.7
424.525,-96.9
424.55,-96.9
424.575,-96.3
424.6,-96.3
424.625,-95.1
424.65,-95.1
424.675,-94.9
424.7,-95.9
424.725,-95.9
424.75,-96.5
424.775,-96.5
424.8,-95.4
424.825,-95.4
424.85,-96.1
424.875,-95.9
424.9,-95.9
424.925,-94.6
424.95,-94.6
424.975,-94.7
425.0,-95.5
425.025,-95.5
425.05,-95.5
425.075,-95.5
425.1,-95.0
425.125,-95.0
425.15,-95.3
425.175,-94.8
425.2,-94.8
425.225,-94.5
425.25,-94.5
425.275,-95.4
425.3,-95.4
425.325,-93.1
425.35,-93.7
425.375,-93.7
425.4,-95.4
425.425,-95.4
425.45,-94.8
425.475,-94.8
425.5,-93.2
425.525,-92.9
425.55,-92.9
425.575,-94.1
425.6,-94.1
425.625,-93.8
425.65,-93.8
425.675,-93.9
425.7,-94.2
425.725,-94.2
425.75,-93.4
425.775,-93.4
425.8,-94.3
425.825,-94.3
425.85,-94.2
425.875,-93.5
425.9,-93.5
425.925,-94.2
425.95,-94.2
425.975,-92.7
426.0,-94.4
426.025,-94.4
426.05,-94.8
426.075,-94.8
426.1,-95.5
426.125,-95.5
426.15,-95.1
426.175,-94.6
426.2,-94.6
426.225,-96.0
426.25,-96.0
426.275,-94.2
426.3,-94.2
426.325,-92.7
426.35,-96.1
426.375,-96.1
426.4,-94.6
426.425,-94.6
426.45,-95.7
426.475,-95.7
426.5,-93.7
426.525,-95.1
426.55,-95.1
426.575,-95.3
426.6,-95.3
426.625,-95.8
426.65,-95.8
426.675,-94.9
426.7,-94.8
426.725,-94.8
426.75,-95.1
426.775,-95.1
426.8,-95.9
426.825,-95.9
426.85,-96.0
426.875,-94.8
426.9,-94.8
426.925,-93.5
426.95,-93.5
426.975,-95.6
427.0,-95.5
427.025,-95.5
427.05,-95.1
427.075,-95.1
427.1,-94.5
427.125,-94.5
427.15,-93.1
427.175,-93.1
427.2,-93.1
427.225,-94.4
427.25,-94.4
427.275,-94.5
427.3,-94.5
427.325,-93.8
427.35,-95.9
427.375,-95.9
427.4,-94.8
427.425,-94.8
427.45,-96.0
427.475,-96.0
427.5,-95.6
427.525,-94.6
427.55,-94.6
427.575,-95.5
427.6,-95.5
427.625,-94.4
427.65,-94.4
427.675,-95.0
427.7,-94.5
427.725,-94.5
427.75,-95.5
427.775,-95.5
427.8,-95.5
427.825,-95.5
427.85,-94.4
427.875,-92.7
427.9,-92.7
427.925,-92.7
427.95,-92.7
427.975,-95.1
428.0,-95.7
428.025,-95.7
428.05,-95.3
428.075,-95.3
428.1,-95.1
428.125,-95.1
428.15,-94.0
428.175,-94.5
428.2,-94.5
428.225,-92.2
428.25,-92.2
428.275,-93.9
428.3,-93.9
428.325,-94.1
428.35,-95.5
428.375,-95.5
428.4,-93.5
428.425,-93.5
428.45,-93.4
428.475,-93.4
428.5,-94.2
428.525,-94.3
428.55,-94.3
428.575,-91.0
428.6,-91.0
428.625,-90.6
428.65,-90.6
428.675,-89.8
428.7,-91.5
428.725,-91.5
428.75,-91.6
428.775,-91.6
428.8,-93.1
428.825,-93.1
428.85,-92.4
428.875,-93.0
428.9,-93.0
428.925,-91.3
428.95,-91.3
428.975,-95.3
429.0,-95.7
429.025,-95.7
429.05,-93.1
429.075,-93.1
429.1,-95.2
429.125,-95.2
429.15,-94.5
429.175,-93.0
429.2,-93.0
429.225,-93.1
429.25,-93.1
429.275,-93.7
429.3,-93.7
429.325,-94.5
429.35,-94.1
429.375,-94.1
429.4,-92.7
429.425,-92.7
429.45,-94.3
429.475,-94.3
429.5,-93.1
429.525,-93.9
429.55,-93.9
429.575,-94.0
429.6,-94.0
429.625,-92.4
429.65,-92.4
429.675,-93.5
429.7,-94.6
429.725,-94.6
429.75,-92.8
429.775,-92.8
429.8,-95.6
429.825,-95.6
429.85,-92.7
429.875,-94.1
429.9,-94.1
429.925,-92.2
429.95,-92.2
429.975,-93.7
430.0,-93.5
430.025,-93.5
430.05,-94.9
430.075,-94.9
430.1,-95.0
430.125,-95.0
430.15,-95.6
430.175,-93.4
430.2,-93.4
430.225,-96.0
430.25,-96.0
430.275,-94.4
430.3,-94.4
430.325,-94.1
430.35,-93.9
430.375,-93.9
430.4,-94.1
430.425,-94.1
430.45,-94.6
430.475,-94.6
430.5,-95.0
430.525,-94.7
430.55,-94.7
430.575,-95.3
430.6,-95.3
430.625,-95.5
430.65,-95.5
430.675,-93.6
430.7,-94.6
430.725,-94.6
430.75,-94.2
430.775,-94.2
430.8,-92.3
430.825,-92.3
430.85,-93.8
430.875,-94.7
430.9,-94.7
430.925,-94.9
430.95,-94.9
430.975,-93.2
431.0,-92.4
431.025,-92.4
431.05,-91.0
431.075,-91.0
431.1,-89.7
431.125,-89.7
431.15,-88.6
431.175,-90.5
431.2,-90.5
431.225,-92.9
431.25,-92.9
431.275,-92.5
431.3,-92.5
431.325,-92.6
431.35,-93.4
431.375,-93.4
431.4,-93.1
431.425,-93.1
431.45,-91.5
431.475,-91.5
431.5,-94.9
431.525,-94.5
431.55,-94.5
431.575,-95.2
431.6,-95.2
431.625,-93.9
431.65,-93.9
431.675,-92.6
431.7,-94.8
431.725,-94.8
431.75,-94.8
431.775,-94.8
431.8,-94.4
431.825,-94.4
431.85,-94.8
431.875,-95.6
431.9,-95.6
431.925,-94.2
431.95,-94.2
431.975,-94.0
432.0,-95.9
432.025,-95.9
432.05,-95.2
432.075,-95.2
432.1,-94.3
432.125,-94.3
432.15,-96.4
432.175,-94.5
432.2,-94.5
432.225,-94.9
432.25,-94.9
432.275,-92.1
432.3,-92.1
432.325,-93.5
432.35,-95.4
432.375,-95.4
432.4,-93.4
432.425,-93.4
432.45,-94.0
432.475,-94.0
432.5,-95.2
432.525,-93.8
432.55,-93.8
432.575,-94.1
432.6,-94.1
432.625,-93.6
432.65,-93.6
432.675,-94.1
432.7,-95.0
432.725,-95.0
432.75,-94.0
432.775,-94.0
432.8,-93.7
432.825,-93.7
432.85,-93.5
432.875,-95.1
432.9,-95.1
432.925,-94.1
432.95,-94.1
432.975,-93.1
433.0,-95.0
433.025,-95.0
433.05,-96.1
433.075,-96.1
433.1,-94.4
433.125,-94.4
433.15,-94.2
433.175,-90.9
433.2,-90.9
433.225,-92.7
433.25,-92.7
433.275,-93.3
433.3,-93.3
433.325,-93.8
433.35,-92.8
433.375,-92.8
433.4,-91.9
433.425,-91.9
433.45,-90.5
433.475,-90.5
433.5,-91.8
433.525,-93.6
433.55,-93.6
433.575,-93.5
433.6,-93.5
433.625,-94.2
433.65,-94.2
433.675,-93.7
433.7,-93.0
433.725,-93.0
433.75,-92.1
433.775,-92.1
433.8,-93.0
433.825,-93.0
433.85,-92.9
433.875,-90.6
433.9,-90.6
433.925,-91.7
433.95,-91.7
433.975,-90.3
434.0,-94.7
434.025,-94.7
434.05,-94.5
434.075,-94.5
434.1,-95.0
434.125,-95.0
434.15,-93.7
434.175,-92.4
434.2,-92.4
434.225,-92.1
434.25,-92.1
434.275,-93.7
434.3,-93.7
434.325,-92.3
434.35,-92.4
434.375,-92.4
434.4,-91.9
434.425,-91.9
434.45,-92.8
434.475,-92.8
434.5,-92.6
434.525,-93.1
434.55,-93.1
434.575,-95.2
434.6,-95.2
434.625,-95.1
434.65,-95.1
434.675,-95.8
434.7,-94.9
434.725,-94.9
434.75,-95.4
434.775,-95.4
434.8,-94.3
434.825,-94.3
434.85,-95.2
434.875,-94.2
434.9,-94.2
434.925,-94.2
434.95,-94.2
434.975,-95.0
435.0,-92.0
435.025,-92.0
435.05,-94.8
435.075,-94.8
435.1,-95.8
435.125,-95.8
435.15,-95.4
435.175,-95.2
435.2,-95.2
435.225,-96.3
435.25,-96.3
435.275,-95.4
435.3,-95.4
435.325,-93.6
435.35,-94.0
435.375,-94.0
435.4,-92.0
435.425,-92.0
435.45,-94.8
435.475,-94.8
435.5,-95.3
435.525,-95.1
435.55,-95.1
435.575,-94.7
435.6,-94.7
435.625,-93.5
435.65,-93.5
435.675,-94.2
435.7,-92.6
435.725,-92.6
435.75,-92.1
435.775,-92.1
435.8,-94.3
435.825,-94.3
435.85,-94.1
435.875,-94.2
435.9,-94.2
435.925,-96.3
435.95,-96.3
435.975,-94.4
436.0,-95.1
436.025,-95.1
436.05,-94.8
436.075,-94.8
436.1,-94.0
436.125,-94.0
436.15,-94.7
436.175,-94.8
436.2,-94.8
436.225,-94.6
436.25,-94.6
436.275,-93.7
436.3,-93.7
436.325,-95.6
436.35,-96.0
436.375,-96.0
436.4,-93.8
436.425,-93.8
436.45,-94.1
436.475,-94.1
436.5,-95.1
436.525,-95.4
436.55,-95.4
436.575,-94.2
436.6,-94.2
436.625,-95.3
436.65,-95.3
436.675,-94.1
436.7,-94.5
436.725,-94.5
436.75,-94.3
436.775,-94.3
436.8,-94.3
436.825,-94.3
436.85,-95.7
436.875,-95.1
436.9,-95.1
436.925,-94.4
436.95,-94.4
436.975,-92.2
437.0,-93.3
437.025,-93.3
437.05,-93.4
437.075,-93.4
437.1,-93.1
437.125,-93.1
437.15,-93.7
437.175,-94.0
437.2,-94.0
437.225,-92.7
437.25,-92.7
437.275,-93.8
437.3,-93.8
437.325,-93.9
437.35,-93.6
437.375,-93.6
437.4,-93.0
437.425,-93.0
437.45,-90.8
437.475,-90.8
437.5,-93.3
437.525,-92.7
437.55,-92.7
437.575,-92.1
437.6,-92.1
437.625,-90.9
437.65,-90.9
437.675,-92.4
437.7,-93.4
437.725,-93.4
437.75,-92.5
437.775,-92.5
437.8,-91.4
437.825,-91.4
437.85,-91.9
437.875,-94.2
437.9,-94.2
437.925,-94.3
437.95,-94.3
437.975,-94.2
438.0,-94.3
438.025,-94.3
438.05,-93.9
438.075,-93.9
438.1,-93.9
438.125,-93.9
438.15,-95.3
438.175,-93.8
438.2,-93.8
438.225,-94.8
438.25,-94.8
438.275,-94.7
438.3,-94.7
438.325,-95.2
438.35,-94.2
438.375,-94.2
438.4,-94.0
438.425,-94.0
438.45,-94.7
438.475,-94.7
438.5,-94.1
438.525,-94.4
438.55,-94.4
438.575,-93.5
438.6,-93.5
438.625,-95.4
438.65,-95.4
438.675,-93.0
438.7,-94.7
438.725,-94.7
438.75,-94.4
438.775,-94.4
438.8,-95.1
438.825,-95.1
438.85,-95.2
438.875,-94.1
438.9,-94.1
438.925,-95.1
438.95,-95.1
438.975,-95.8
439.0,-93.0
439.025,-93.0
439.05,-94.0
439.075,-94.0
439.1,-94.2
439.125,-94.2
439.15,-93.8
439.175,-95.6
439.2,-95.6
439.225,-92.3
439.25,-92.3
439.275,-94.2
439.3,-94.2
439.325,-93.1
439.35,-94.0
439.375,-94.0
439.4,-92.8
439.425,-92.8
439.45,-94.5
439.475,-94.5
439.5,-95.3
439.525,-94.0
439.55,-94.0
439.575,-95.1
439.6,-95.1
439.625,-95.0
439.65,-95.0
439.675,-94.5
439.7,-94.1
439.725,-94.1
439.75,-94.6
439.775,-94.6
439.8,-94.6
439.825,-94.6
439.85,-92.7
439.875,-91.8
439.9,-91.8
439.925,-92.1
439.95,-92.1
439.975,-91.2
440.0,-90.9
